;Title, http://www.gcdataconcepts.com, X16-2 ADXL345
;Version, 1447, Build num, 0x276, Build date, 20120709 17:23:15,  SN:CCDC20160000714
;Start_time, 2012-11-09, 10:02:47.002
;Temperature, 19.75, deg C,  Vbat, 3999, mv
;Gain, 16g
;SampleRate, 50,Hz
;Deadband, 0, counts
;DeadbandTimeout, 0,sec
;Headers, time,Ax,Ay,Az
1.224,962,89,271
1.244,966,83,268
1.264,946,94,266
1.284,949,100,292
1.304,959,106,288
1.324,953,95,273
1.343,948,97,282
1.364,953,112,271
1.383,947,115,273
1.404,949,98,277
1.423,954,77,281
1.443,943,83,288
1.463,950,100,287
1.483,956,99,272
1.503,948,97,291
1.523,941,98,281
1.542,946,109,285
1.563,952,114,283
1.582,952,109,272
1.603,944,111,277
1.622,946,123,283
1.642,948,123,285
1.662,946,112,284
1.682,945,101,281
1.702,946,98,286
1.722,950,109,288
1.742,946,107,283
1.762,945,106,285
1.781,946,107,282
1.802,952,107,281
1.821,949,105,288
1.842,946,98,288
1.861,945,100,287
1.881,945,108,281
1.901,944,116,279
1.921,945,117,279
1.941,946,118,289
1.961,943,111,290
1.980,948,108,287
2.002,947,110,287
2.022,948,117,288
2.042,946,122,283
2.062,947,118,278
2.081,951,113,281
2.102,948,106,278
2.122,945,103,278
2.142,947,106,279
2.162,948,101,275
2.181,948,92,281
2.202,951,91,288
2.221,946,93,281
2.242,949,99,277
2.261,948,100,276
2.281,949,95,280
2.301,947,93,284
2.321,954,88,286
2.341,951,100,281
2.361,950,98,281
2.380,949,101,279
2.401,948,101,278
2.420,949,98,276
2.441,947,98,279
2.460,947,93,275
2.480,950,100,274
2.500,946,105,276
2.520,949,97,270
2.540,949,96,281
2.560,948,112,276
2.579,950,103,274
2.600,953,102,277
2.619,949,99,271
2.640,946,109,277
2.659,946,98,274
2.679,949,96,274
2.699,948,105,277
2.719,953,114,277
2.739,949,110,279
2.759,950,103,276
2.778,948,96,275
2.799,947,100,277
2.818,952,103,280
2.839,948,96,276
2.858,947,95,276
2.878,949,101,279
2.898,947,103,274
2.918,947,107,279
2.938,948,108,275
2.958,950,104,281
2.978,952,102,279
3.000,946,108,279
3.019,946,109,276
3.040,948,107,277
3.059,941,110,282
3.079,945,108,281
3.099,946,98,283
3.119,947,102,282
3.139,948,117,286
3.159,949,118,286
3.179,944,101,287
3.199,943,107,286
3.218,952,118,282
3.239,943,110,290
3.258,944,118,285
3.279,943,122,286
3.298,942,126,288
3.318,947,110,283
3.338,943,98,289
3.358,942,115,287
3.378,950,119,278
3.398,946,99,289
3.417,944,90,282
3.438,945,104,288
3.457,946,124,285
3.478,948,110,277
3.497,953,88,286
3.517,944,79,286
3.537,945,101,282
3.557,948,105,289
3.577,942,106,285
3.597,944,111,288
3.616,948,119,288
3.637,947,109,280
3.656,944,100,289
3.677,946,101,287
3.696,951,99,290
3.716,943,93,282
3.736,946,98,277
3.756,944,101,288
3.776,945,113,285
3.796,944,107,287
3.816,945,107,290
3.836,945,112,283
3.855,945,114,285
3.876,946,106,287
3.895,949,101,284
3.916,947,105,281
3.935,949,115,289
3.955,947,105,287
3.976,945,97,275
3.997,950,103,280
4.016,948,112,284
4.037,945,107,285
4.056,950,94,285
4.077,945,93,285
4.096,946,98,280
4.117,947,104,283
4.136,945,101,275
4.156,944,96,280
4.176,947,94,280
4.196,948,97,286
4.216,946,97,278
4.236,947,112,278
4.255,947,111,286
4.276,945,102,283
4.295,950,98,280
4.316,945,99,280
4.335,944,110,282
4.355,951,107,285
4.375,946,97,279
4.395,951,93,276
4.415,947,101,281
4.435,949,108,274
4.454,951,110,275
4.475,948,105,283
4.494,947,99,282
4.515,948,101,276
4.534,949,100,285
4.554,949,93,278
4.574,947,92,276
4.594,951,89,279
4.614,948,95,277
4.634,948,101,273
4.653,945,95,275
4.674,949,94,276
4.693,951,100,276
4.714,947,93,279
4.733,947,90,280
4.754,952,94,273
4.773,953,106,278
4.793,947,103,274
4.813,949,95,273
4.833,950,91,273
4.854,950,101,275
4.873,953,104,275
4.893,947,92,279
4.913,946,93,272
4.933,948,94,278
4.953,951,98,279
4.973,950,102,272
4.992,950,96,279
5.014,951,90,277
5.034,948,93,279
5.054,948,96,268
5.074,953,95,276
5.093,950,105,272
5.114,952,99,275
5.133,951,94,279
5.154,949,91,273
5.173,949,89,272
5.193,953,97,275
5.213,947,100,271
5.233,950,92,274
5.253,952,96,268
5.273,946,103,269
5.293,951,106,274
5.313,949,105,274
5.332,951,103,269
5.353,951,102,276
5.372,951,93,275
5.393,947,102,270
5.412,949,105,275
5.432,949,101,279
5.452,943,95,272
5.472,952,88,270
5.492,949,108,275
5.512,949,104,277
5.531,948,96,278
5.552,953,89,277
5.571,952,91,278
5.592,949,102,271
5.611,950,104,279
5.631,952,97,275
5.651,952,96,277
5.671,949,89,280
5.691,950,97,277
5.711,947,92,280
5.731,949,92,277
5.751,948,84,277
5.771,949,97,271
5.791,952,101,275
5.811,949,98,278
5.830,951,98,281
5.851,949,96,275
5.870,951,96,275
5.891,949,97,274
5.910,949,98,273
5.930,946,85,277
5.950,951,89,275
5.970,948,97,284
5.990,946,102,283
6.011,950,96,278
6.031,948,82,279
6.051,951,85,283
6.071,953,90,277
6.091,944,104,271
6.111,942,117,273
6.130,948,115,298
6.151,951,95,273
6.170,945,74,259
6.191,955,83,269
6.210,957,72,238
6.230,944,100,265
6.250,940,86,268
6.270,952,38,278
6.290,949,53,264
6.310,957,82,252
6.330,946,113,276
6.350,940,106,267
6.369,952,81,264
6.390,949,104,269
6.409,946,112,255
6.430,948,69,267
6.449,943,77,277
6.469,940,89,320
6.489,943,92,367
6.509,941,88,361
6.529,938,128,363
6.549,939,105,346
6.569,952,75,320
6.589,947,91,294
6.609,949,75,280
6.629,959,89,279
6.649,945,73,271
6.668,948,56,292
6.689,948,34,287
6.708,947,62,277
6.729,943,106,274
6.748,947,122,302
6.768,947,107,314
6.788,952,72,294
6.808,948,80,295
6.828,950,98,288
6.848,957,92,284
6.867,949,93,280
6.888,954,85,276
6.907,956,79,275
6.928,958,87,265
6.947,959,96,269
6.967,963,95,271
6.987,968,101,278
7.008,969,100,301
7.029,959,70,271
7.048,972,51,257
7.069,976,66,277
7.088,966,82,263
7.108,967,67,222
7.128,968,90,172
7.148,980,105,81
7.168,981,118,128
7.188,974,124,195
7.207,971,73,239
7.228,981,59,204
7.247,985,42,138
7.268,1005,64,142
7.287,982,151,113
7.307,968,185,121
7.327,990,164,133
7.347,994,87,135
7.367,982,61,138
7.387,998,43,100
7.406,1007,32,85
7.427,996,98,85
7.447,999,134,68
7.467,1014,112,66
7.487,1002,80,66
7.506,999,48,66
7.527,1006,32,71
7.546,1018,39,72
7.567,1008,15,69
7.586,1007,1,51
7.606,1014,19,71
7.626,1015,-20,43
7.646,1082,-13,-106
7.666,996,10,-104
7.686,999,-28,-148
7.706,1061,-86,-204
7.726,1027,-19,-147
7.745,977,-46,-88
7.766,1005,-117,61
7.785,928,-119,175
7.806,998,-61,-116
7.825,1015,-309,91
7.845,935,-267,322
7.865,941,-36,180
7.885,972,-273,128
7.905,917,-314,289
7.925,860,-197,147
7.944,828,-375,229
7.965,927,-336,38
7.984,802,-437,96
8.005,789,-345,68
8.026,797,-115,14
8.045,795,-6,-57
8.066,801,-41,-110
8.085,867,-92,-154
8.105,870,-108,-85
8.125,879,-186,-5
8.145,907,-460,199
8.165,1079,-1118,314
8.185,985,-1725,68
8.205,870,-1493,255
8.225,1021,-350,75
8.244,624,786,199
8.265,881,87,70
8.284,1273,-518,197
8.305,1066,-530,187
8.325,801,-454,152
8.344,907,-316,280
8.365,1028,-16,419
8.384,936,92,365
8.405,860,47,372
8.424,1020,13,377
8.444,1036,-121,272
8.464,963,-56,238
8.484,971,-2,257
8.504,959,1,256
8.524,924,28,290
8.543,938,9,325
8.564,945,-87,294
8.583,949,-178,273
8.604,949,-180,261
8.623,936,-103,250
8.643,949,1,237
8.663,954,55,225
8.683,910,178,235
8.703,901,333,274
8.723,948,464,304
8.742,962,438,288
8.763,962,233,331
8.782,953,61,315
8.803,948,-44,295
8.822,943,-57,312
8.842,931,-18,281
8.862,937,16,266
8.882,946,9,263
8.902,954,3,288
8.922,945,-40,291
8.942,947,-73,287
8.962,948,5,319
8.981,942,96,338
9.003,931,128,363
9.023,939,105,358
9.043,931,130,360
9.063,933,138,350
9.082,938,108,336
9.103,941,111,334
9.122,940,115,338
9.143,939,103,314
9.162,935,88,298
9.182,939,100,299
9.203,946,124,307
9.222,948,112,335
9.243,945,119,342
9.262,941,122,332
9.282,935,78,299
9.302,953,115,346
9.322,952,95,306
9.342,939,46,262
9.362,946,72,253
9.382,952,87,255
9.402,953,92,255
9.421,949,84,255
9.442,951,75,250
9.461,950,51,226
9.482,957,72,252
9.501,959,94,275
9.521,952,53,262
9.541,956,61,262
9.561,961,100,261
9.581,954,105,259
9.601,951,124,259
9.620,963,108,267
9.641,959,63,261
9.660,959,50,249
9.681,958,60,245
9.700,957,89,253
9.720,960,80,245
9.740,965,84,238
9.760,961,93,231
9.780,961,68,232
9.800,967,50,237
9.819,963,61,242
9.840,967,65,232
9.859,961,82,231
9.880,954,103,225
9.899,959,106,224
9.919,965,104,233
9.939,962,91,226
9.959,965,76,217
9.979,967,68,234
10.000,960,62,224
10.020,966,55,218
10.040,961,43,224
10.060,968,32,231
10.081,967,16,233
10.100,965,9,229
10.120,963,15,222
10.140,969,25,222
10.160,969,39,226
10.180,971,37,228
10.200,965,35,233
10.219,961,43,229
10.240,968,64,230
10.259,969,87,228
10.280,968,84,228
10.299,968,82,217
10.319,968,80,224
10.339,974,80,223
10.359,972,82,224
10.379,969,75,233
10.399,968,48,220
10.419,967,60,214
10.439,971,68,226
10.458,969,63,226
10.479,966,56,221
10.498,968,36,223
10.519,966,36,220
10.538,971,50,218
10.558,968,51,223
10.578,971,45,216
10.598,970,31,220
10.618,967,38,218
10.638,971,50,214
10.657,972,50,217
10.678,974,57,223
10.697,972,55,216
10.718,968,58,214
10.737,970,48,216
10.757,972,44,218
10.777,972,49,223
10.797,966,48,221
10.817,964,53,225
10.837,968,56,222
10.856,972,56,219
10.877,971,58,216
10.896,973,55,213
10.917,968,50,218
10.936,967,43,219
10.956,972,45,217
10.976,972,54,216
10.998,970,63,218
11.018,971,66,221
11.038,967,55,216
11.058,970,50,211
11.078,968,53,222
11.097,969,56,217
11.118,971,52,216
11.137,970,58,214
11.158,969,53,220
11.177,972,44,215
11.197,971,57,215
11.217,968,54,214
11.237,968,47,217
11.257,972,54,215
11.277,971,61,214
11.296,977,59,215
11.317,974,48,219
11.336,975,54,218
11.357,962,56,219
11.376,967,52,225
11.396,971,53,225
11.416,972,52,218
11.436,963,53,219
11.456,968,63,205
11.476,975,62,214
11.495,975,76,205
11.516,973,68,200
11.535,971,66,196
11.556,973,88,202
11.575,971,87,197
11.595,974,74,200
11.615,972,67,204
11.635,976,63,204
11.655,969,59,201
11.675,972,65,201
11.694,973,67,203
11.715,974,71,205
11.734,973,66,214
11.755,973,58,210
11.774,971,58,205
11.795,977,61,211
11.814,973,66,210
11.834,971,51,208
11.854,971,53,206
11.874,969,64,211
11.894,973,64,209
11.914,973,65,207
11.934,975,67,213
11.954,971,62,211
11.974,972,69,211
11.994,970,70,210
12.015,972,73,207
12.035,973,87,207
12.055,976,86,211
12.075,971,83,213
12.094,969,84,206
12.115,972,76,209
12.134,975,68,214
12.155,971,62,209
12.174,968,62,209
12.194,970,69,206
12.214,977,84,206
12.234,971,78,208
12.254,972,82,211
12.274,971,86,208
12.293,968,84,214
12.314,969,73,207
12.333,971,79,203
12.354,973,86,208
12.373,969,88,209
12.393,974,85,210
12.413,976,84,209
12.433,973,85,210
12.453,970,80,213
12.473,973,75,216
12.492,966,76,213
12.513,971,74,209
12.532,941,86,233
12.553,960,189,263
12.572,980,231,202
12.592,960,234,192
12.612,953,292,253
12.632,947,267,137
12.652,936,29,206
12.672,989,-285,268
12.691,1005,-379,267
12.712,992,-140,226
12.732,959,35,236
12.752,933,0,184
12.772,974,-60,216
12.792,990,-7,225
12.812,963,55,218
12.831,945,60,203
12.852,961,26,228
12.871,962,43,201
12.892,940,39,208
12.911,934,44,179
12.931,942,53,186
12.951,956,68,221
12.971,943,19,256
12.991,970,4,349
13.012,986,-56,354
13.033,983,-103,292
13.052,978,-29,271
13.072,939,26,325
13.092,966,-81,351
13.112,947,-14,352
13.132,930,33,339
13.152,949,47,322
13.171,917,134,313
13.192,926,90,317
13.211,963,10,290
13.232,941,23,251
13.251,956,10,274
13.271,950,59,314
13.291,932,47,315
13.311,956,12,338
13.331,928,48,303
13.351,937,123,311
13.370,941,164,341
13.391,955,182,322
13.410,970,337,414
13.431,908,606,437
13.450,874,666,270
13.470,1026,472,128
13.490,1439,223,482
13.510,2055,201,719
13.530,1961,100,236
13.550,1955,367,440
13.570,1574,205,137
13.590,1252,-670,6
13.610,1595,-531,-134
13.630,1309,1764,327
13.650,528,224,430
13.670,1214,-889,638
13.690,1487,-1630,-35
13.709,810,-1067,-177
13.730,531,-543,8
13.749,389,-208,-169
13.770,207,214,-185
13.789,376,195,200
13.809,729,-392,598
13.829,1057,-1128,867
13.849,1164,-3546,1096
13.869,-292,-3242,134
13.889,-426,-1984,1223
13.908,774,-3165,889
13.929,1229,311,-88
13.948,1906,2674,163
13.969,-77,-1926,1017
13.988,-117,-1773,399
14.009,706,-1968,199
14.030,872,-896,854
14.049,867,22,1115
14.070,1037,-685,718
14.089,853,-1368,722
14.109,984,-1373,825
14.129,1381,-1181,750
14.149,1873,-854,245
14.169,2212,-527,-56
14.189,2111,71,398
14.208,2122,1344,792
14.229,1419,1884,340
14.248,671,2139,93
14.269,586,1502,-506
14.288,1220,75,-68
14.308,2405,-613,628
14.328,1952,618,-102
14.348,1668,137,243
14.368,2013,-749,561
14.388,1612,-915,13
14.407,887,-783,102
14.428,-72,-621,473
14.447,-673,-647,365
14.468,-469,-842,74
14.488,142,-795,123
14.507,465,-473,57
14.528,593,-503,-96
14.547,856,-1009,34
14.568,1171,-1104,94
14.587,1419,-1132,569
14.607,1109,-2093,1316
14.627,416,-3329,774
14.647,-523,-3742,213
14.667,-168,-2229,342
14.687,315,-783,1962
14.706,6967,3584,169
14.727,-1313,-2695,173
14.746,-2161,-506,152
14.767,246,-1417,1343
14.786,2097,-2883,1494
14.806,1429,-1387,341
14.826,1334,-425,930
14.846,1874,-955,349
14.866,2023,-916,360
14.886,2101,-624,536
14.906,1872,-240,219
14.926,1602,624,571
14.945,1226,2004,502
14.966,829,2229,638
14.985,611,1934,64
15.006,842,-187,-586
15.027,2270,-573,106
15.046,2322,820,354
15.067,2166,990,425
15.086,2207,771,141
15.106,1599,85,119
15.126,1278,-791,451
15.146,743,-1264,646
15.166,34,-1532,646
15.186,-444,-1509,298
15.206,-362,-1331,77
15.226,-76,-979,131
15.245,58,-433,-30
15.266,257,-409,-167
15.285,864,-686,117
15.306,1809,-364,217
15.325,2122,-1163,927
15.345,1010,-2188,1113
15.366,135,-3710,799
15.385,-805,-3407,136
15.406,129,-1893,640
15.425,4733,597,3099
15.445,3271,1940,-1969
15.465,-3844,-3059,956
15.485,-719,-1190,-375
15.505,1011,-1947,1670
15.525,2416,-2919,1448
15.544,1029,-562,710
15.565,1553,-656,452
15.584,2115,-1187,66
15.605,2183,-793,1102
15.624,1949,-256,400
15.644,2061,130,430
15.664,1551,899,575
15.684,1208,2740,587
15.704,658,2906,771
15.724,511,865,-521
15.743,1537,-933,-436
15.764,2729,-114,186
15.783,2092,1136,578
15.804,2398,1144,311
15.823,1904,378,219
15.843,1332,-378,215
15.863,1030,-1144,749
15.883,179,-1234,786
15.903,-752,-1447,698
15.923,-834,-1251,170
15.942,-396,-1081,294
15.963,-53,-602,298
15.982,183,-272,20
16.004,583,-516,28
16.024,1300,-651,221
16.044,1910,-932,406
16.064,1286,-1541,910
16.083,1326,-2370,749
16.104,-398,-3752,671
16.123,-185,-2431,-202
16.144,1583,-1325,1767
16.163,7049,4385,-874
16.183,-2487,-3795,1961
16.203,-2896,-1587,-907
16.223,458,-1369,949
16.244,2322,-2873,2429
16.263,1505,-1024,752
16.283,897,-700,411
16.303,1785,-1507,-15
16.323,2501,-1008,613
16.343,2259,-509,1033
16.363,1843,-20,-199
16.382,2152,406,914
16.403,1415,1635,548
16.422,855,2573,797
16.443,458,2377,224
16.462,876,-91,-581
16.482,2410,-419,261
16.502,2296,1188,384
16.522,1687,864,10
16.542,2353,628,141
16.562,1639,129,162
16.581,1246,-667,158
16.602,903,-1095,659
16.621,-100,-1280,718
16.642,-752,-1329,363
16.661,-583,-1215,-23
16.681,-211,-978,240
16.701,0,-468,128
16.721,200,-284,-185
16.741,653,-604,-14
16.761,1447,-599,175
16.780,2362,-1083,524
16.801,1260,-1910,816
16.820,941,-2496,813
16.841,-531,-4261,605
16.860,-60,-2509,177
16.880,3633,-379,3041
16.900,4421,4164,-2344
16.920,-3001,-4324,2484
16.940,-1748,-1225,-1190
16.960,611,-1377,754
16.980,2544,-2826,2668
17.001,1278,-1264,405
17.021,1227,-993,377
17.041,2434,-1280,106
17.061,2658,-511,1019
17.081,1976,-217,622
17.101,2095,991,727
17.121,1715,1331,460
17.141,1002,2430,670
17.161,579,2771,247
17.180,864,467,-686
17.201,2232,-433,350
17.220,2660,1040,584
17.241,1545,1279,8
17.260,2025,619,70
17.280,1677,92,235
17.300,1101,-687,115
17.320,910,-1399,688
17.340,38,-1400,616
17.360,-879,-1349,190
17.379,-791,-1048,-183
17.400,-171,-800,89
17.419,193,-357,-39
17.440,391,-369,-271
17.459,893,-936,64
17.480,1860,-1175,226
17.499,2134,-1835,640
17.519,747,-1285,675
17.539,581,-3062,1450
17.559,-715,-3856,-276
17.579,192,-2095,234
17.599,2341,358,3446
17.618,5475,4040,-2149
17.639,-2894,-4807,2100
17.658,-1538,-1023,-1132
17.679,373,-1285,1196
17.698,2411,-2911,2339
17.718,1435,-1362,182
17.738,1542,-678,507
17.758,2625,-1097,134
17.778,2676,-1135,918
17.798,2170,4,445
17.817,1978,1190,938
17.838,1216,2046,175
17.857,1008,2536,994
17.878,618,2115,327
17.897,1027,-339,-516
17.917,2558,-869,227
17.937,2378,956,612
17.957,1883,933,162
17.977,2207,826,229
17.999,1463,244,92
18.018,1089,-631,500
18.039,609,-1120,552
18.058,-304,-1519,668
18.079,-933,-1368,308
18.098,-621,-1129,-140
18.118,-139,-852,187
18.138,158,-390,-21
18.158,312,-500,-347
18.178,773,-815,3
18.198,1489,-858,260
18.217,2020,-1657,990
18.238,1225,-1585,844
18.257,452,-3637,1142
18.278,-575,-3637,-467
18.297,251,-1821,1256
18.318,8019,2591,1655
18.337,-383,-590,-327
18.357,-4756,-2426,331
18.377,195,-2092,445
18.397,1803,-3686,1619
18.417,2068,-1359,1494
18.437,1429,-460,417
18.456,2029,-1142,-234
18.477,2305,-1123,901
18.496,2206,-302,1013
18.517,2075,358,479
18.536,1628,1105,817
18.556,1262,2587,617
18.576,678,2417,940
18.596,727,853,-168
18.616,1529,-903,-306
18.636,2594,163,475
18.655,2050,1352,539
18.676,1863,1050,77
18.695,1987,701,274
18.716,1466,-67,39
18.735,1207,-768,535
18.755,506,-1284,557
18.775,-511,-1676,700
18.795,-990,-1294,110
18.815,-550,-1166,-54
18.835,-193,-692,260
18.854,119,-321,-130
18.875,441,-499,-232
18.894,1050,-621,117
18.915,1824,-817,316
18.935,1871,-2027,1076
18.954,1174,-1803,705
18.975,91,-3773,1360
18.994,-558,-3220,-435
19.016,561,-1700,1408
19.036,7831,4354,476
19.055,-1819,-2684,829
19.076,-3408,-2920,-289
19.095,290,-1017,596
19.116,1901,-2609,2210
19.135,1763,-1568,897
19.155,1091,-1085,492
19.175,1900,-1264,74
19.195,2747,-796,641
19.215,2359,-682,1107
19.235,1683,501,102
19.254,1854,691,1052
19.275,1334,1862,554
19.294,741,2335,753
19.315,597,1866,262
19.334,1166,-136,-265
19.354,2270,-142,163
19.374,2198,968,233
19.394,2028,660,218
19.414,2398,512,278
19.434,1663,-124,148
19.453,1390,-519,269
19.474,879,-1158,544
19.493,-294,-1324,597
19.514,-1049,-1158,182
19.533,-671,-917,-37
19.553,-215,-746,295
19.573,217,-470,168
19.593,482,-509,-104
19.613,721,-807,113
19.633,1224,-900,248
19.652,1481,-2019,1006
19.673,1131,-2357,602
19.692,937,-1678,548
19.713,-378,-3450,583
19.732,-35,-2250,-133
19.752,4454,-711,3927
19.772,3796,3347,-3028
19.792,-3461,-4531,979
19.813,-1150,-1118,-188
19.832,566,-1459,1621
19.853,2776,-2871,2107
19.872,1368,-1016,182
19.892,1616,-611,435
19.912,2334,-1323,502
19.932,2120,-1109,1181
19.952,1890,8,316
19.972,2174,1050,921
19.991,1514,2199,448
20.013,950,2659,1029
20.033,674,2216,185
20.053,1188,-312,-635
20.073,2572,-692,249
20.092,2344,1250,926
20.113,1640,1124,307
20.132,1872,534,-142
20.153,1563,-59,139
20.172,1181,-441,357
20.192,676,-1236,523
20.212,-300,-1302,564
20.232,-1052,-1426,350
20.252,-806,-1168,-130
20.272,-280,-894,81
20.291,89,-452,0
20.312,286,-281,-299
20.331,823,-601,-158
20.352,1776,-980,306
20.371,2173,-2032,714
20.391,1038,-1446,325
20.411,723,-2213,1102
20.431,-747,-3927,-83
20.451,280,-1992,221
20.471,5103,688,3821
20.490,2305,2655,-1699
20.511,-3230,-5116,610
20.530,-795,-1086,-400
20.551,523,-1052,1999
20.570,2683,-2939,1608
20.591,1314,-1276,-38
20.610,1477,-549,508
20.630,2381,-944,319
20.650,2397,-1048,965
20.670,1831,-262,504
20.691,1917,965,1036
20.710,1718,1561,481
20.730,905,2397,634
20.750,591,2872,827
20.770,828,386,-766
20.790,1924,-929,10
20.810,2471,584,537
20.829,1921,1079,413
20.850,2352,677,107
20.869,1578,-8,19
20.890,1252,-537,86
20.909,897,-1226,596
20.929,-114,-1231,474
20.949,-1101,-1350,221
20.969,-984,-950,-136
20.989,-326,-751,114
21.010,80,-371,127
21.030,376,-132,-170
21.050,774,-472,18
21.070,1585,-886,252
21.089,2151,-1948,640
21.110,705,-1868,679
21.129,581,-1576,787
21.150,-82,-4621,1026
21.169,-187,-2245,100
21.189,5682,115,3600
21.209,2881,2436,-2573
21.229,-4917,-2751,1315
21.249,-456,-1735,-330
21.269,1200,-2615,1330
21.289,2474,-2411,2341
21.309,968,-510,596
21.328,1418,-823,86
21.349,2192,-1094,306
21.368,2337,-531,1311
21.389,1902,-322,136
21.408,2073,153,336
21.428,1945,1112,883
21.448,1032,2580,709
21.468,479,3272,142
21.488,935,582,-614
21.508,2305,-24,679
21.528,2384,1138,471
21.548,1629,906,205
21.568,2173,820,346
21.588,1516,-184,51
21.608,1225,-764,368
21.627,877,-1490,770
21.648,102,-1605,669
21.667,-862,-1409,80
21.688,-1027,-994,-270
21.707,-408,-747,-61
21.727,102,-237,-148
21.747,353,-11,-331
21.767,855,-385,1
21.787,2106,-792,533
21.807,2471,-2230,1187
21.826,662,-2330,544
21.847,325,-3723,1071
21.866,-349,-3103,286
21.887,750,-1785,1328
21.906,7627,3157,27
21.926,-2110,-1092,1420
21.946,-3469,-2282,-265
21.966,407,-2110,594
21.986,1893,-3646,1683
22.007,1718,-801,1268
22.028,1394,-517,531
22.047,1886,-1452,-356
22.067,2322,-1095,639
22.087,2303,-450,1208
22.107,1877,-45,242
22.127,1948,658,883
22.147,1455,2326,535
22.166,771,2892,1052
22.187,432,1275,-526
22.206,1146,-641,-463
22.227,2718,2,474
22.246,2082,1345,521
22.266,1573,996,168
22.286,2134,969,424
22.306,1360,86,-47
22.326,1219,-616,401
22.346,786,-1182,906
22.366,-150,-1594,804
22.386,-821,-1515,296
22.406,-691,-1174,-53
22.426,-311,-860,337
22.446,6,-430,127
22.465,252,-236,-197
22.486,667,-567,-68
22.505,1497,-612,409
22.526,2348,-1290,908
22.545,1298,-2466,572
22.565,573,-2385,452
22.585,-313,-3409,588
22.605,221,-2229,167
22.625,5144,-562,3104
22.645,2969,3540,-2023
22.664,-3665,-4388,1180
22.685,-987,-1478,-555
22.704,529,-1646,1340
22.725,2787,-2832,2064
22.744,1577,-948,477
22.764,1411,-719,361
22.784,1985,-1194,269
22.804,2213,-685,1329
22.824,2146,121,982
22.844,2013,1414,572
22.863,1148,1686,-53
22.884,985,2066,924
22.903,732,1819,3
22.924,1259,271,-406
22.943,2267,155,618
22.963,2118,1406,516
22.983,1467,657,-48
23.004,1841,172,177
23.025,1413,-382,-35
23.044,1189,-976,112
23.064,983,-1388,593
23.084,1,-1056,372
23.104,-833,-836,57
23.124,-670,-702,-15
23.144,-251,-756,32
23.163,101,-511,28
23.184,333,-441,-204
23.203,693,-706,35
23.224,1206,-520,342
23.244,2069,-917,843
23.263,1419,-2447,837
23.284,625,-2456,183
23.303,-146,-3160,829
23.324,262,-2020,-514
23.343,1101,-1216,1233
23.364,6989,4924,699
23.383,-2975,-4124,1186
23.403,-2748,-2456,-482
23.423,901,-2203,1312
23.443,2473,-2378,1159
23.463,1328,-462,1050
23.483,1058,-705,458
23.502,1992,-2145,-162
23.523,2638,-1803,1010
23.542,2155,-294,852
23.563,2052,1249,562
23.582,1862,1635,787
23.602,1075,2217,229
23.622,738,2274,970
23.642,716,1194,-353
23.662,1406,-674,-219
23.682,2287,-5,397
23.701,1925,1261,318
23.722,1747,845,92
23.741,2239,756,319
23.762,1361,-295,-88
23.781,1272,-1136,542
23.801,794,-1405,793
23.821,-350,-1404,457
23.841,-938,-1132,158
23.861,-604,-903,-74
23.881,-96,-663,144
23.900,196,-154,-16
23.921,442,-333,-236
23.940,1099,-939,415
23.961,2052,-1112,639
23.980,1953,-2753,969
24.001,701,-2229,195
24.022,224,-3332,1074
24.041,-156,-2797,-366
24.062,497,-1399,1325
24.081,7032,4203,631
24.101,-1354,-4003,678
24.122,-2805,-1893,-833
24.141,1,-1379,891
24.162,1597,-2477,1962
24.181,2356,-1610,714
24.202,1504,-465,641
24.221,1699,-940,359
24.241,2254,-1087,792
24.261,2235,-854,780
24.281,1906,22,507
24.301,1895,1483,997
24.321,1380,2755,719
24.340,596,3178,802
24.361,687,1031,-718
24.380,1752,-1050,-189
24.401,2660,69,490
24.420,2160,1338,667
24.440,2133,977,446
24.460,1623,-131,-70
24.480,1312,-568,320
24.500,952,-1231,986
24.520,165,-1457,701
24.539,-831,-1452,305
24.560,-959,-1011,-85
24.579,-408,-848,120
24.600,55,-467,103
24.619,307,-99,-164
24.639,610,-294,-285
24.659,1366,-549,42
24.679,2117,-1333,582
24.699,1476,-2236,724
24.719,749,-1605,412
24.738,-140,-4033,1195
24.759,-226,-2508,-288
24.778,1461,-1455,2116
24.799,7152,4202,-517
24.818,-4134,-5033,2265
24.838,-1248,-1362,-1550
24.858,405,-1511,1129
24.878,2455,-3040,2400
24.898,1299,-994,540
24.918,1513,-699,523
24.937,1852,-1100,-67
24.958,2023,-1000,863
24.977,2077,-656,785
25.000,1847,-251,168
25.019,1692,605,822
25.039,1549,2223,669
25.059,804,2810,862
25.079,607,1594,-272
25.099,1320,-597,-446
25.119,2488,-115,422
25.138,2111,1436,589
25.159,1790,987,179
25.178,2268,668,366
25.199,1362,-297,-252
25.218,1364,-1061,352
25.238,861,-1251,904
25.258,-353,-1279,349
25.278,-777,-1282,57
25.298,-531,-998,32
25.318,-275,-776,188
25.337,11,-435,-37
25.358,233,-465,-235
25.377,698,-697,61
25.398,1612,-754,321
25.417,2716,-2333,1116
25.438,857,-2079,379
25.457,443,-2664,1095
25.477,-589,-3497,-40
25.497,166,-2034,-164
25.517,2509,1372,3902
25.537,5011,5096,-2668
25.557,-2342,-7488,2477
25.576,-1744,-1113,-1609
25.597,99,-815,1874
25.616,2181,-1990,1950
25.637,1862,-1436,197
25.656,1295,-642,605
25.676,1993,-1160,443
25.696,2149,-1409,796
25.716,2372,-942,659
25.736,1824,37,319
25.756,1582,1836,1117
25.775,1290,2722,637
25.796,537,2489,1014
25.815,503,1246,-502
25.836,1357,-996,-563
25.855,2427,-244,458
25.875,2054,1130,805
25.895,1904,728,301
25.915,2248,852,277
25.935,1400,46,-40
25.955,1181,-694,341
25.975,634,-1257,822
25.997,-344,-1272,646
26.016,-777,-1339,216
26.037,-603,-1082,14
26.056,-300,-841,169
26.076,14,-507,5
26.096,252,-365,-263
26.116,528,-610,-135
26.136,1209,-632,213
26.156,2336,-1488,881
26.175,1432,-2366,831
26.196,414,-2264,626
26.215,-409,-3950,554
26.236,162,-2207,135
26.255,6085,1262,3542
26.275,2123,2388,-1791
26.295,-4702,-4407,1333
26.315,-407,-1275,-555
26.335,1083,-2134,1808
26.355,2556,-2246,1663
26.375,1106,-473,649
26.395,1143,-901,167
26.414,2138,-1552,-14
26.435,2538,-1001,1262
26.454,1880,-387,349
26.475,1831,503,396
26.494,1835,1188,950
26.514,1167,2074,476
26.534,691,2802,895
26.554,669,995,-744
26.574,1644,-642,-152
26.594,2629,276,589
26.613,2107,1219,604
26.634,2274,833,196
26.653,1630,0,-146
26.674,1275,-488,56
26.693,979,-1319,712
26.713,246,-1470,680
26.733,-767,-1224,255
26.753,-852,-887,-68
26.773,-419,-832,99
26.793,-103,-670,220
26.813,201,-603,-5
26.833,393,-497,-275
26.853,765,-458,-113
26.873,1466,-775,248
26.893,1815,-2155,891
26.912,930,-1478,377
26.933,596,-2225,1272
26.952,-677,-4186,45
26.973,186,-2017,247
26.992,6470,3773,4372
27.013,1460,374,-2790
27.034,-3769,-5377,1458
27.053,-945,-966,-482
27.074,780,-1356,2007
27.093,2759,-2403,1674
27.113,1073,-1221,-13
27.133,1292,-922,174
27.153,2322,-1398,362
27.173,2296,-1098,1018
27.193,2066,-866,326
27.212,1719,477,787
27.233,1651,2002,1230
27.252,1201,3182,420
27.273,360,2692,1130
27.292,592,1149,-225
27.312,1339,-1597,-648
27.332,2061,-638,222
27.352,2318,1081,1099
27.372,2216,837,368
27.392,1878,290,10
27.411,1223,-223,-16
27.432,968,-788,328
27.451,297,-1141,506
27.472,-796,-855,149
27.491,-776,-960,-49
27.511,-334,-939,255
27.531,-115,-770,289
27.551,155,-665,-32
27.571,425,-602,-237
27.591,866,-837,53
27.610,1537,-1031,404
27.631,1807,-1883,764
27.650,894,-1420,555
27.671,677,-1631,1060
27.691,-37,-4010,278
27.710,-98,-1911,311
27.731,7135,1203,1052
27.750,573,571,-488
27.771,-4876,-1621,902
27.790,-137,-2149,360
27.810,1604,-3946,938
27.830,2136,-1583,2068
27.850,1260,271,801
27.870,1653,-1085,46
27.890,1805,-1631,293
27.909,2395,-599,1440
27.930,2328,-206,598
27.949,1852,745,403
27.970,1280,1719,377
27.989,1287,2375,909
28.011,475,2378,130
28.031,853,343,-473
28.050,1979,-97,367
28.071,2250,749,99
28.090,1729,341,38
28.111,2269,259,190
28.130,1776,55,241
28.150,1232,-672,424
28.170,849,-1568,648
28.190,-153,-1194,418
28.210,-1043,-980,272
28.230,-776,-814,11
28.249,-355,-741,86
28.270,-64,-380,77
28.289,286,-189,-89
28.310,753,-473,-63
28.329,1508,-856,382
28.349,2006,-2059,906
28.369,986,-2428,386
28.389,832,-2008,718
28.409,-200,-3204,601
28.429,130,-2044,-349
28.448,2091,-1180,2140
28.469,5310,4803,-410
28.488,-2440,-5153,1151
28.509,-1677,-1934,-930
28.528,168,-1011,1097
28.548,2286,-2363,2392
28.569,1747,-1266,345
28.588,1294,-576,550
28.609,1910,-1162,244
28.628,2049,-1221,784
28.648,2094,-726,586
28.668,2306,329,646
28.688,1938,1651,949
28.708,1014,2132,362
28.728,1063,2070,1111
28.748,1149,858,-512
28.768,1595,-450,-90
28.787,2215,531,684
28.808,1645,1397,202
28.827,1617,985,20
28.848,1600,395,161
28.867,1207,-561,-1
28.887,1124,-741,695
28.907,592,-1136,790
28.927,-241,-1652,457
28.947,-536,-1438,62
28.967,-326,-978,-98
28.986,-12,-641,100
29.008,260,-394,-129
29.028,642,-592,-286
29.048,1474,-644,186
29.068,2742,-912,672
29.087,1765,-2153,962
29.108,718,-1894,588
29.127,-180,-4317,1105
29.148,-304,-2822,-499
29.167,733,-1321,959
29.187,5965,5044,2022
29.207,238,-1371,186
29.227,-3319,-4764,26
29.247,-358,-752,150
29.267,1159,-1265,2284
29.286,2981,-2137,1349
29.307,965,-555,378
29.326,1179,-634,352
29.347,2275,-1542,222
29.366,2476,-1149,1260
29.386,2015,454,185
29.406,2224,1692,743
29.426,1350,1396,-11
29.447,954,1793,627
29.466,773,2179,47
29.486,1201,495,-412
29.506,2058,-278,445
29.526,2083,873,479
29.546,1641,942,64
29.566,1995,611,181
29.585,1442,-273,18
29.606,1215,-807,404
29.625,889,-1207,722
29.646,30,-1283,553
29.665,-596,-1239,235
29.685,-556,-968,-209
29.705,-142,-872,29
29.725,142,-528,-21
29.745,363,-496,-298
29.765,783,-755,-94
29.784,1563,-789,227
29.805,2247,-1721,872
29.824,1032,-1777,611
29.845,517,-2994,1259
29.864,-665,-3892,-183
29.884,210,-1810,790
29.904,5204,2266,3768
29.924,2025,1585,-2012
29.944,-3202,-4499,1401
29.964,-819,-1148,-653
29.983,548,-1375,1423
30.005,2608,-2844,1816
30.025,1430,-1148,510
30.045,1301,-771,272
30.065,2007,-1121,225
30.085,2421,-988,1474
30.105,1807,-123,250
30.124,2034,768,582
30.145,1672,1425,722
30.164,1052,2339,443
30.185,580,2661,311
30.204,915,501,-625
30.224,2012,-744,-20
30.244,2485,401,370
30.264,2069,1057,563
30.284,2393,1142,540
30.304,1415,61,-61
30.324,1300,-393,387
30.344,940,-1115,1062
30.364,120,-1291,996
30.384,-719,-1367,656
30.404,-747,-957,45
30.423,-347,-794,241
30.444,60,-401,221
30.463,317,-276,-165
30.484,611,-604,-112
30.503,1332,-720,235
30.523,2220,-1249,725
30.543,1413,-2292,744
30.563,520,-2543,510
30.583,-334,-3996,338
30.603,-40,-2561,-434
30.622,1691,-1210,3225
30.643,6653,5819,-565
30.662,-3117,-6858,1326
30.683,-1702,-1175,-1071
30.702,407,-1005,1604
30.723,2244,-1830,1912
30.742,1422,-1214,396
30.762,1069,-911,423
30.782,1865,-1477,204
30.802,1907,-1251,704
30.822,1840,-656,840
30.842,1975,-119,344
30.861,2127,534,895
30.882,1641,1216,237
30.901,1142,2815,644
30.922,332,3183,8
30.941,589,586,-576
30.961,1463,-763,70
30.981,2063,-192,261
31.002,1835,924,834
31.023,2391,1434,981
31.042,1563,-192,-133
31.062,1454,-699,435
31.082,1002,-1234,1096
31.102,292,-1508,598
31.122,-389,-1456,322
31.142,-627,-942,105
31.162,-192,-750,81
31.182,269,-507,125
31.202,599,-462,-9
31.222,927,-869,51
31.242,1509,-901,282
31.261,2093,-1501,730
31.282,1085,-2118,466
31.301,404,-2529,750
31.322,-223,-3261,114
31.341,349,-2137,-143
31.361,1416,-874,2012
31.381,5629,5552,279
31.401,-2294,-4665,1647
31.421,-2212,-2400,-1334
31.441,413,-1158,982
31.460,1987,-1798,2252
31.481,1673,-1278,406
31.500,1038,-857,570
31.521,1569,-1309,325
31.540,2010,-1365,455
31.560,2190,-850,994
31.580,1845,-526,180
31.600,1834,769,886
31.620,1724,1480,797
31.640,1174,2639,689
31.659,549,3265,457
31.680,711,382,-828
31.699,1932,-1012,-90
31.720,2510,396,496
31.739,2226,1061,696
31.759,2204,707,314
31.779,1572,-223,-169
31.799,1241,-483,358
31.819,713,-1198,806
31.839,-216,-1337,446
31.858,-1038,-1362,183
31.879,-846,-952,-100
31.898,-307,-808,71
31.919,121,-498,0
31.938,340,-273,-271
31.958,809,-362,-326
31.978,1819,-756,127
32.000,2411,-2121,765
32.020,994,-1556,481
32.040,643,-3188,1540
32.060,-502,-3842,-44
32.080,753,-2116,1405
32.099,6998,4624,662
32.120,-974,-1638,680
32.139,-3780,-2666,437
32.160,97,-1244,12
32.179,1550,-2383,1641
32.199,2209,-1703,1561
32.219,897,-686,552
32.239,1243,-1197,77
32.259,2117,-1386,92
32.279,2438,-589,1114
32.298,2042,-540,285
32.319,1874,526,374
32.338,1661,849,622
32.359,1096,2485,524
32.378,703,3020,802
32.398,779,1609,-229
32.418,1474,-535,-53
32.438,2064,-660,141
32.458,1806,587,446
32.478,2220,840,486
32.497,2004,461,253
32.518,1432,149,307
32.537,1048,-1051,616
32.558,575,-1475,798
32.577,-403,-1398,624
32.597,-818,-1170,175
32.617,-401,-1050,16
32.637,177,-753,253
32.657,516,-350,117
32.677,739,-564,-39
32.696,1265,-960,334
32.717,1722,-1488,653
32.736,1380,-2283,794
32.757,1078,-2210,468
32.776,-158,-3040,767
32.796,-30,-2263,-297
32.816,1644,-1613,1481
32.836,5962,4664,-404
32.856,-1693,-3384,1082
32.876,-2867,-2517,-445
32.896,434,-1187,332
32.916,1837,-2034,2147
32.935,1758,-1624,981
32.956,805,-750,467
32.976,1552,-1118,355
32.997,2015,-1322,703
33.017,2189,-892,910
33.037,2175,-369,167
33.057,2076,809,988
33.077,1621,1517,287
33.096,973,2634,396
33.117,586,3013,682
33.136,805,833,-741
33.157,1618,-884,-116
33.176,2041,-75,278
33.197,1846,736,413
33.216,2403,845,609
33.236,1625,44,114
33.256,1220,-541,359
33.276,929,-1297,1020
33.296,75,-1191,640
33.316,-697,-1183,309
33.335,-689,-969,8
33.356,-288,-1000,198
33.375,109,-789,135
33.396,319,-375,-197
33.415,637,-548,-205
33.435,1289,-866,46
33.455,1931,-1093,281
33.475,1381,-1346,786
33.495,769,-2149,1348
33.515,-536,-4901,263
33.534,-209,-2415,418
33.555,2909,-223,3475
33.574,4913,4653,-2517
33.595,-2821,-3941,2302
33.614,-1691,-1494,-1514
33.634,499,-1437,775
33.654,2364,-2627,2695
33.674,1390,-1459,270
33.694,919,-823,722
33.714,2126,-1104,730
33.733,2403,-990,576
33.754,2117,-631,930
33.773,1985,915,1035
33.794,1475,1555,555
33.813,1159,2145,191
33.833,849,1920,627
33.854,512,2338,16
33.873,1316,253,-456
33.894,1891,-513,-10
33.913,1920,405,137
33.933,2220,788,413
33.953,2199,523,431
33.973,1397,-661,52
33.993,1130,-1351,305
34.014,567,-1308,1031
34.035,-426,-755,500
34.054,-666,-1099,127
34.074,-457,-1018,111
34.094,-166,-905,100
34.114,159,-615,14
34.134,300,-370,-113
34.154,730,-405,-6
34.173,1973,-382,522
34.194,2476,-2038,1287
34.213,866,-1936,168
34.234,231,-2422,1303
34.253,-309,-3573,-378
34.273,643,-1661,347
34.293,5693,4141,2866
34.313,1440,46,-1974
34.333,-3967,-4252,1445
34.353,-815,-1181,-134
34.372,1244,-1648,1090
34.393,2419,-2102,1624
34.412,1033,-650,912
34.433,1033,-724,350
34.452,1890,-1798,214
34.472,2317,-1224,1044
34.492,2170,-737,594
34.512,1957,302,91
34.532,2141,1057,1080
34.552,1284,1958,190
34.571,1027,2641,772
34.592,789,2148,-194
34.611,1590,-173,-337
34.632,1945,-545,257
34.651,1850,627,408
34.671,2023,831,165
34.691,1937,487,293
34.711,1276,-150,150
34.732,952,-849,483
34.751,537,-1667,930
34.771,-438,-1190,541
34.791,-1051,-1064,68
34.811,-676,-827,-46
34.831,-160,-629,172
34.851,249,-164,-11
34.870,511,-88,-239
34.891,1123,-485,330
34.910,2265,-751,555
34.931,2635,-2193,956
34.950,712,-2135,488
34.970,53,-2817,1221
34.990,-138,-3161,-389
35.011,282,-1572,861
35.032,6303,3160,2394
35.051,400,-46,-923
35.071,-3680,-4643,1390
35.091,12,-1149,-557
35.111,988,-1672,1269
35.131,2131,-2039,1618
35.151,1311,-747,631
35.170,1396,-809,377
35.191,1998,-1214,86
35.210,2116,-1476,824
35.231,1823,-906,339
35.250,1993,266,880
35.270,1634,1578,1086
35.290,1058,2957,275
35.310,610,2415,635
35.330,749,1380,-151
35.350,1452,-819,-423
35.370,1681,-602,57
35.390,1705,839,775
35.409,2078,1262,505
35.430,1580,306,180
35.449,1132,-472,96
35.470,1092,-1066,873
35.489,555,-1114,625
35.509,-321,-924,383
35.529,-629,-708,268
35.549,-288,-711,168
35.569,216,-581,238
35.589,612,-528,125
35.609,953,-889,174
35.629,1355,-987,241
35.649,1780,-963,192
35.669,1595,-1194,360
35.689,753,-979,462
35.708,264,-2539,827
35.729,-219,-2912,298
35.748,3273,-2648,1261
35.769,3812,2117,-85
35.788,-949,-2791,1627
35.808,-1854,-967,-1371
35.828,-275,-1228,653
35.848,2161,-2676,2602
35.868,2411,-1257,238
35.888,959,-280,359
35.907,1293,-406,331
35.928,1730,-717,711
35.947,1500,-408,947
35.968,1158,-382,449
35.987,1355,-170,478
36.008,1426,215,562
36.029,1011,1133,390
36.048,791,2230,586
36.069,801,1918,55
36.088,924,410,-175
36.109,1614,-241,290
36.128,2453,293,672
36.148,2260,557,562
36.168,1335,-409,-141
36.188,1356,-199,186
36.208,854,-367,365
36.228,372,-1059,278
36.247,38,-1126,221
36.268,-159,-653,-40
36.287,15,-336,-143
36.308,395,-312,120
36.327,751,-472,171
36.347,1237,-819,74
36.367,1794,-1108,120
36.387,1480,-1107,70
36.407,1265,-915,37
36.427,830,-439,219
36.447,502,-2020,593
36.467,-34,-3251,1307
36.487,3364,-2702,901
36.507,3654,1326,-591
36.527,-598,-1882,1307
36.546,-1010,-1268,-227
36.567,-408,-1083,363
36.586,1118,-1962,1538
36.607,2303,-1424,701
36.626,945,-513,579
36.646,801,-248,668
36.666,864,-198,768
36.686,900,-97,994
36.706,1009,-338,866
36.726,1028,-573,578
36.745,991,-325,696
36.766,903,354,855
36.785,813,647,449
36.806,673,534,136
36.825,502,576,229
36.845,608,407,363
36.865,804,-36,255
36.885,947,-702,217
36.905,1314,-412,454
36.925,2437,565,1105
36.944,1553,76,772
36.965,1071,-1266,386
36.984,1446,-1044,94
37.006,1473,-459,454
37.026,1087,-181,98
37.045,567,149,-405
37.066,124,425,-182
37.085,179,-180,-119
37.106,585,-790,-225
37.125,1024,-1187,-273
37.145,826,-930,-329
37.165,562,-690,-242
37.185,562,-714,30
37.205,612,-297,-37
37.225,992,-130,-58
37.244,1835,-595,185
37.265,2168,-1358,77
37.284,1211,-537,-168
37.305,644,-1347,231
37.325,310,-1848,513
37.344,2514,-1144,676
37.365,3394,3467,64
37.384,289,-100,141
37.405,-1001,-1765,1243
37.424,353,-1861,-139
37.444,872,-1676,417
37.464,1361,-744,1249
37.484,1214,223,551
37.504,861,-1,283
37.524,654,-608,574
37.543,728,-479,860
37.564,874,-143,925
37.583,847,-196,700
37.604,783,-82,579
37.623,782,129,696
37.643,822,45,625
37.663,847,76,416
37.683,812,258,177
37.703,713,414,233
37.723,788,399,371
37.742,850,304,429
37.763,1087,309,505
37.782,992,208,417
37.803,916,295,266
37.822,1057,464,331
37.842,1478,670,615
37.862,1974,349,877
37.882,1936,-723,852
37.902,1622,-1257,594
37.922,1118,-575,697
37.941,927,-305,595
37.962,807,-607,12
37.981,831,-131,121
38.003,977,1228,-629
38.023,827,1403,-1104
38.043,863,800,-516
38.063,944,256,-581
38.082,1190,139,-232
38.103,1454,11,15
38.122,1554,-326,-24
38.143,1531,-767,14
38.162,1483,-1417,0
38.182,1362,-2278,336
38.203,899,-1857,813
38.222,913,132,368
38.243,602,-626,861
38.262,849,-3498,552
38.282,2567,168,-778
38.302,2914,2722,302
38.322,-670,-767,395
38.342,-255,-2011,1485
38.362,921,-1509,253
38.381,1346,-612,405
38.402,1317,241,1115
38.421,947,127,171
38.442,719,-249,402
38.461,720,-411,830
38.482,985,-211,811
38.501,1004,-21,605
38.521,747,13,321
38.541,741,123,341
38.561,935,37,565
38.581,988,-46,469
38.601,920,21,287
38.620,848,189,386
38.641,1009,189,261
38.660,1022,197,350
38.681,1027,435,560
38.700,1023,461,485
38.720,1093,240,349
38.740,1212,71,257
38.760,1347,211,222
38.780,1409,580,365
38.800,1348,868,348
38.819,1550,815,250
38.840,1996,486,384
38.859,1676,253,645
38.880,1640,-532,1005
38.899,1479,-9,717
38.919,1035,415,172
38.939,568,-1292,261
38.959,707,-630,366
38.979,463,481,-28
39.000,364,178,-333
39.020,410,-97,91
39.040,435,-293,114
39.060,518,-270,28
39.081,666,-132,26
39.100,826,-164,32
39.120,1068,-423,172
39.140,1307,-523,418
39.160,1757,-727,349
39.180,1938,-952,533
39.200,1596,-955,787
39.219,1366,-682,540
39.240,844,-1922,951
39.259,583,-2027,38
39.280,1121,-930,505
39.299,2471,4024,1741
39.319,1251,2099,-1734
39.339,1084,-2172,259
39.359,1323,-1484,463
39.379,1025,-903,697
39.399,876,-632,928
39.418,564,-428,584
39.439,688,-404,251
39.458,1109,-481,231
39.479,1256,-371,363
39.498,1050,70,334
39.518,861,229,335
39.538,875,3,353
39.558,968,-289,402
39.578,889,-186,333
39.598,855,37,264
39.617,946,207,252
39.638,989,232,344
39.657,919,62,451
39.678,826,31,323
39.697,975,-156,244
39.717,1044,35,429
39.737,1272,444,576
39.757,1428,552,389
39.777,1264,516,94
39.797,1357,427,284
39.816,1644,337,445
39.837,1804,634,361
39.856,2089,791,130
39.877,1768,999,181
39.896,1636,68,869
39.916,1722,31,1172
39.936,1310,696,488
39.956,414,-306,112
39.976,540,-1427,454
39.998,742,34,620
40.018,432,130,-149
40.038,323,-327,-82
40.057,312,-278,262
40.078,354,-263,101
40.097,476,-269,4
40.118,605,-270,151
40.137,756,-313,177
40.157,1098,-479,177
40.177,1669,-661,244
40.197,2143,-834,511
40.217,1729,-620,535
40.237,1495,-243,440
40.256,952,-1809,1190
40.277,526,-2186,117
40.296,974,-1294,798
40.317,2477,2618,1477
40.336,1734,2613,-1666
40.356,907,-1466,-100
40.376,1109,-1387,645
40.396,1037,-1734,926
40.416,881,-904,503
40.436,676,-476,544
40.455,798,-206,667
40.476,1073,-411,255
40.495,1161,-352,282
40.516,1032,80,364
40.535,903,373,228
40.555,929,205,245
40.575,964,-128,451
40.595,878,-272,441
40.615,893,-203,346
40.635,1020,-88,214
40.654,1051,171,179
40.675,928,367,355
40.694,1021,213,327
40.715,1258,39,279
40.734,1173,521,375
40.754,1311,793,460
40.774,1309,597,67
40.794,1244,568,84
40.814,1538,573,324
40.834,2062,635,502
40.854,2349,1130,286
40.874,1763,833,266
40.894,1768,-431,1245
40.914,1734,465,977
40.934,850,415,21
40.953,409,-1754,435
40.974,635,-350,600
40.993,326,546,-177
41.015,234,-166,-187
41.035,265,-337,327
41.054,299,-373,279
41.075,440,-285,130
41.094,678,-262,195
41.115,833,-391,256
41.134,1074,-669,296
41.154,1386,-941,288
41.174,1554,-822,429
41.194,1740,-756,719
41.214,1593,-273,340
41.234,941,-951,1035
41.253,726,-2138,501
41.274,1023,-1667,417
41.293,2301,2211,1077
41.314,2154,2214,-1841
41.333,1225,-1799,-358
41.353,992,-1335,889
41.373,753,-1242,1172
41.393,589,-499,705
41.413,637,-488,418
41.433,1033,-834,700
41.453,1239,-574,109
41.473,1136,-121,161
41.492,942,369,356
41.513,879,474,275
41.532,930,148,277
41.553,1005,-391,421
41.572,926,-576,242
41.592,908,-257,241
41.612,1016,150,412
41.632,1016,452,457
41.652,922,412,444
41.672,1075,18,178
41.691,1126,52,224
41.712,1230,625,507
41.732,1341,831,418
41.752,1289,533,126
41.772,1353,447,216
41.791,1710,537,334
41.812,2218,639,370
41.831,2158,1287,273
41.852,1575,443,480
41.871,1840,-125,1363
41.891,1653,1017,545
41.911,546,-129,23
41.931,693,-1585,834
41.951,763,200,379
41.971,377,174,-325
41.990,317,-408,153
42.012,302,-428,295
42.032,287,-507,-41
42.052,421,-402,-16
42.072,549,-200,104
42.091,781,-318,78
42.112,1226,-520,170
42.131,1724,-622,386
42.152,2032,-658,717
42.171,1902,-796,650
42.192,1204,-1350,747
42.211,598,-2292,844
42.231,923,-1973,128
42.251,1577,-338,881
42.271,2942,4695,-258
42.291,992,-1108,-770
42.311,1159,-1423,921
42.330,1011,-1635,1223
42.351,600,-955,544
42.370,314,-559,492
42.391,982,-492,463
42.410,1718,-630,129
42.430,1153,-204,67
42.450,643,345,546
42.470,764,447,415
42.490,1093,122,475
42.510,1066,-369,469
42.529,798,-436,128
42.550,865,-238,242
42.569,1060,132,395
42.590,1095,601,360
42.610,1002,406,215
42.629,1012,19,199
42.650,1107,86,445
42.669,1303,537,618
42.690,1357,664,311
42.709,1261,641,23
42.729,1367,659,177
42.749,2068,788,473
42.769,2392,873,476
42.789,1796,1079,359
42.809,1762,-42,1099
42.828,1771,438,983
42.849,967,450,14
42.868,557,-1645,577
42.889,812,-504,626
42.908,449,356,-110
42.928,270,-248,-82
42.948,290,-280,199
42.968,309,-327,52
42.988,451,-364,-70
43.009,611,-302,46
43.029,750,-421,94
43.049,1018,-635,177
43.069,1295,-736,106
43.089,1675,-599,358
43.109,2257,-775,647
43.128,1691,-937,439
43.149,799,-1353,1049
43.168,526,-2633,861
43.189,1014,-2254,320
43.208,2405,2933,1225
43.228,1982,1815,-1531
43.248,1120,-1493,233
43.268,1077,-1359,1006
43.288,867,-1115,792
43.308,465,-894,540
43.327,618,-576,566
43.348,1095,-549,545
43.367,1435,-460,257
43.388,1090,-72,212
43.407,806,401,389
43.427,859,424,366
43.447,1014,13,387
43.467,1010,-475,385
43.488,880,-519,189
43.507,904,-122,322
43.527,1033,356,512
43.547,1075,551,333
43.567,984,280,185
43.587,1032,41,270
43.607,1192,357,488
43.626,1363,743,464
43.647,1304,718,26
43.666,1344,693,6
43.687,1896,711,190
43.706,2560,850,376
43.726,1970,1233,260
43.746,1719,235,860
43.766,1937,-73,1335
43.786,1293,793,283
43.806,536,-929,350
43.825,827,-1314,751
43.846,537,188,225
43.865,234,-232,-188
43.886,166,-506,178
43.905,41,-366,222
43.925,137,-269,10
43.945,377,-200,59
43.965,559,-333,148
43.985,866,-587,228
44.006,1266,-680,351
44.027,1718,-629,478
44.046,2105,-1089,946
44.066,1627,-859,151
44.086,828,-696,1126
44.106,645,-2001,919
44.126,986,-2429,231
44.146,1627,431,750
44.165,2657,4249,-789
44.186,1170,-860,-474
44.205,1234,-1043,472
44.226,752,-1576,1099
44.245,621,-1250,571
44.265,669,-1046,610
44.285,957,-651,454
44.305,1203,-298,303
44.325,1134,138,275
44.345,945,602,485
44.365,893,317,342
44.385,992,-218,286
44.405,1013,-576,341
44.425,841,-404,259
44.445,859,-52,398
44.464,1014,326,476
44.485,1068,524,374
44.504,969,297,200
44.525,1138,-100,133
44.544,1122,182,336
44.564,1277,931,585
44.584,1375,742,141
44.604,1279,511,-30
44.624,1540,561,151
44.644,2328,703,460
44.663,2313,1269,316
44.684,1663,628,339
44.703,1968,-81,1422
44.724,1644,576,679
44.743,634,162,64
44.763,552,-1733,689
44.783,736,-217,588
44.803,325,245,-225
44.823,240,-449,-51
44.843,204,-404,279
44.862,186,-255,82
44.883,341,-197,-29
44.902,550,-210,113
44.923,785,-388,121
44.942,1302,-626,282
44.962,1834,-824,403
44.982,1873,-925,525
45.003,1781,-427,268
45.024,1304,-441,1029
45.043,533,-2302,1039
45.063,630,-2800,106
45.083,1385,-1383,901
45.103,3245,5170,307
45.123,1131,-186,-1215
45.143,877,-1008,443
45.162,692,-1554,1391
45.183,1245,-1307,819
45.203,515,-1024,396
45.223,647,-495,645
45.243,1107,-294,91
45.262,1479,-253,164
45.283,1040,29,389
45.302,744,349,366
45.323,840,253,345
45.342,1020,-177,465
45.362,970,-373,290
45.382,882,-239,233
45.402,952,-14,430
45.422,1090,196,410
45.442,1063,252,282
45.461,907,276,183
45.482,936,317,372
45.501,1240,619,687
45.522,1397,510,247
45.541,1294,429,-54
45.561,1362,513,134
45.581,1964,590,341
45.601,2437,709,362
45.621,1875,1338,202
45.641,1697,220,832
45.660,1793,7,1306
45.681,1383,914,396
45.700,444,-615,137
45.721,711,-1717,798
45.740,666,-6,483
45.760,290,-82,-321
45.780,184,-507,60
45.800,66,-284,288
45.820,128,-224,30
45.840,386,-190,25
45.859,564,-230,145
45.880,786,-445,151
45.899,1234,-698,279
45.920,1756,-738,384
45.939,1861,-753,806
45.959,1813,-897,605
45.979,1231,-815,730
46.000,463,-2115,1190
46.021,883,-2169,10
46.040,1597,524,1058
46.060,2996,3961,-961
46.081,1152,-1311,-799
46.100,881,-949,764
46.121,684,-1357,1324
46.140,605,-854,827
46.160,470,-1038,521
46.180,936,-912,373
46.200,1435,-254,244
46.220,1392,23,299
46.240,816,232,280
46.259,694,235,325
46.280,946,19,465
46.299,1134,-493,423
46.320,914,-479,154
46.339,869,-160,341
46.359,1043,252,487
46.379,1138,453,350
46.399,960,346,154
46.419,881,172,172
46.439,1048,278,395
46.458,1342,710,582
46.479,1383,573,120
46.498,1273,493,-6
46.519,1404,515,187
46.538,2197,657,463
46.558,2293,1048,338
46.578,1697,899,202
46.598,1873,161,1326
46.618,1665,397,1013
46.638,958,345,77
46.657,516,-1673,577
46.678,765,-662,696
46.697,360,330,-134
46.718,157,-332,-201
46.737,126,-451,189
46.757,116,-387,17
46.777,251,-282,-199
46.797,452,-143,-25
46.817,695,-204,4
46.837,1224,-375,43
46.856,1971,-566,302
46.877,1969,-790,414
46.896,1823,-769,415
46.917,1623,-785,833
46.936,805,-1776,1196
46.956,598,-2985,468
46.976,1070,-1341,569
46.998,3124,4240,708
47.018,1280,731,-1648
47.038,942,-979,272
47.058,854,-1462,1216
47.078,1007,-1182,1013
47.097,533,-975,648
47.118,716,-961,509
47.137,1027,-519,180
47.158,1354,63,220
47.177,1120,588,433
47.197,817,513,393
47.217,839,92,309
47.237,1044,-406,426
47.257,977,-565,312
47.277,837,-210,260
47.296,956,233,421
47.317,984,673,357
47.336,1001,546,297
47.357,1135,-14,186
47.376,1089,-150,183
47.396,1145,455,548
47.416,1356,861,471
47.436,1325,555,-63
47.456,1363,494,70
47.476,1794,637,342
47.495,2372,637,334
47.516,1836,1182,236
47.535,1616,572,727
47.556,1796,-7,1469
47.575,1403,506,549
47.595,549,-40,231
47.615,475,-1765,552
47.635,682,-341,625
47.655,276,69,-52
47.675,133,-483,-240
47.694,69,-339,164
47.715,83,-142,149
47.734,294,-142,-34
47.755,535,-217,33
47.774,675,-307,36
47.794,1089,-470,123
47.814,1773,-672,378
47.834,2019,-921,637
47.854,1790,-839,412
47.874,1525,-485,790
47.894,824,-1681,1278
47.914,705,-2582,261
47.934,1097,-1239,506
47.954,3165,4705,513
47.974,1239,332,-1921
47.993,762,-1354,350
48.015,491,-1468,1377
48.035,1318,-1258,1421
48.054,698,-845,441
48.075,537,-770,466
48.094,949,-364,88
48.115,1559,149,122
48.134,1164,558,516
48.155,660,389,453
48.174,699,-57,290
48.194,1086,-614,435
48.214,1073,-731,268
48.234,851,-264,257
48.254,932,158,521
48.274,1036,464,373
48.293,977,626,291
48.314,1020,268,76
48.333,1054,51,188
48.354,1265,528,622
48.373,1437,667,416
48.393,1310,450,-52
48.413,1404,590,188
48.433,1910,760,511
48.453,2268,757,416
48.473,1848,1168,267
48.492,1690,133,796
48.513,1754,-14,1174
48.532,1191,1027,366
48.553,377,-805,103
48.572,682,-1367,598
48.592,586,410,488
48.612,248,106,-302
48.632,241,-260,76
48.652,314,-282,304
48.672,445,-437,27
48.691,618,-412,50
48.712,743,-368,111
48.732,922,-428,136
48.752,1365,-523,207
48.772,1844,-702,348
48.791,1853,-717,446
48.812,1770,-576,450
48.831,1224,-1380,965
48.852,633,-2377,699
48.871,915,-1939,552
48.891,2200,1865,1027
48.911,2571,2106,-1836
48.931,1091,-991,-125
48.951,875,-1032,956
48.971,809,-1195,989
48.990,371,-801,857
49.012,606,-1061,538
49.032,1169,-1092,131
49.052,1406,-118,249
49.072,1068,732,469
49.092,758,741,490
49.112,810,152,349
49.131,1053,-405,484
49.152,983,-631,377
49.171,797,-277,306
49.192,946,72,342
49.211,1006,661,295
49.231,969,906,361
49.251,1043,231,211
49.271,1144,-258,174
49.291,1193,167,452
49.311,1384,797,604
49.330,1329,663,36
49.351,1316,573,62
49.370,1620,603,279
49.391,2378,759,505
49.410,2029,1305,216
49.430,1611,599,391
49.450,1820,-51,1406
49.470,1553,865,862
49.490,621,22,147
49.510,633,-1679,601
49.529,769,-87,652
49.550,369,215,-114
49.569,225,-499,-8
49.590,196,-532,324
49.610,240,-430,122
49.629,388,-318,-32
49.650,506,-219,102
49.669,670,-308,75
49.690,1081,-496,210
49.709,1716,-527,287
49.729,2023,-637,684
49.749,1841,-705,638
49.769,1456,-766,584
49.789,563,-2155,1166
49.809,724,-2030,213
49.828,1394,-1412,809
49.849,3217,4986,651
49.868,1121,292,-1946
49.889,1101,-1476,271
49.908,981,-1643,1193
49.928,798,-1170,915
49.948,270,-581,887
49.968,592,-391,730
49.988,1302,-703,187
50.009,1657,-477,-153
50.029,933,267,265
50.049,661,484,395
50.069,870,129,324
50.089,1150,-348,559
50.109,946,-553,246
50.128,773,-257,206
50.149,964,22,424
50.168,1074,307,397
50.189,1045,438,418
50.208,1020,185,95
50.228,1035,137,160
50.248,1257,542,501
50.268,1399,725,348
50.288,1244,427,4
50.308,1345,363,223
50.327,1796,662,461
50.348,1882,957,363
50.367,2121,1392,265
50.388,1780,715,515
50.407,1773,-176,1252
50.427,1685,449,772
50.447,809,118,162
50.467,637,-1741,538
50.488,788,-349,419
50.507,370,190,-127
50.527,198,-283,-118
50.547,196,-197,99
50.567,258,-307,-96
50.587,452,-375,-71
50.607,603,-286,-11
50.626,741,-362,51
50.647,1046,-477,212
50.666,1493,-447,148
50.687,2189,-453,280
50.706,2137,-643,396
50.726,1412,-660,603
50.746,779,-1748,1020
50.766,692,-2685,510
50.786,778,-1895,684
50.806,2339,2979,1338
50.825,2063,2811,-1572
50.846,1014,-1785,155
50.865,1195,-1237,546
50.886,1054,-1416,823
50.905,755,-1021,866
50.925,622,-718,536
50.945,788,-384,429
50.965,1118,-289,241
50.985,1255,-213,311
51.006,1018,205,405
51.026,840,500,360
51.046,890,204,267
51.066,956,-192,479
51.086,874,-298,412
51.106,856,-229,290
51.125,1025,-60,379
51.146,1136,86,303
51.165,974,421,258
51.186,1008,463,102
51.205,1082,376,254
51.225,1307,502,628
51.245,1408,355,208
51.265,1375,429,10
51.285,1551,582,134
51.305,2168,774,278
51.325,2312,1149,236
51.345,1652,1199,353
51.365,1814,120,1285
51.385,1786,309,1148
51.405,1106,553,250
51.424,433,-1182,557
51.445,745,-978,890
51.464,500,228,377
51.485,249,-260,-149
51.504,153,-561,158
51.524,23,-422,313
51.544,156,-362,12
51.564,372,-299,41
51.584,522,-180,37
51.604,720,-307,34
51.623,1170,-271,267
51.644,2034,-320,506
51.663,2280,-750,1043
51.684,1663,-860,629
51.703,880,-1396,1028
51.723,544,-2669,875
51.743,906,-1846,295
51.763,1895,-308,1148
51.783,3245,5868,-761
51.803,714,-595,-917
51.823,895,-1400,479
51.843,608,-1959,1515
51.862,632,-1195,1146
51.883,423,-608,787
51.902,912,-502,539
51.923,1656,-318,-123
51.942,1382,-11,73
51.962,759,385,489
51.982,643,267,262
52.003,929,-99,505
52.024,1247,-840,587
52.043,836,-586,46
52.063,835,-47,385
52.083,1166,273,392
52.103,1178,505,173
52.123,896,461,204
52.143,957,84,117
52.162,1104,-34,280
52.183,1295,354,468
52.203,1398,511,288
52.223,1254,649,142
52.243,1320,766,243
52.262,1925,903,382
52.283,2200,827,370
52.302,1803,873,418
52.323,1783,-29,1082
52.342,1802,442,915
52.362,1011,174,25
52.382,798,-1934,767
52.402,893,-268,465
52.422,361,383,-62
52.442,123,-362,37
52.461,207,-720,220
52.482,225,-753,-34
52.501,282,-674,-152
52.522,326,-448,-46
52.541,403,-312,-57
52.561,631,-287,-70
52.581,1070,-138,18
52.601,1920,43,280
52.621,2211,-311,549
52.641,2136,-799,565
52.660,1325,-884,641
52.681,637,-2657,1260
52.700,275,-2145,88
52.721,1220,-1442,1044
52.740,2993,4448,1213
52.760,1028,1747,-1858
52.780,922,-1372,336
52.800,940,-2159,1437
52.820,1655,-1760,881
52.840,589,-911,284
52.859,477,-263,836
52.880,810,-284,236
52.899,1447,-465,74
52.920,1322,-276,512
52.939,827,365,409
52.959,725,516,216
52.979,907,107,363
53.000,1102,-430,529
53.021,928,-468,275
53.040,858,-68,211
53.060,963,407,396
53.081,978,753,302
53.100,1096,392,107
53.121,1075,59,116
53.140,1082,259,448
53.160,1314,572,654
53.180,1324,293,73
53.200,1292,365,12
53.220,1494,552,358
53.240,2125,733,623
53.259,2159,916,379
53.280,1626,797,270
53.299,1722,-42,1055
53.320,1655,349,1015
53.339,984,520,155
53.359,492,-1567,414
53.379,806,-866,593
53.399,384,381,123
53.419,130,-98,-241
53.439,192,-315,124
53.458,246,-381,204
53.479,372,-381,-37
53.498,523,-317,-21
53.519,619,-341,24
53.538,890,-476,109
53.558,1347,-522,118
53.578,1920,-547,320
53.598,1957,-573,541
53.618,1918,-539,471
53.638,1314,-1069,931
53.657,526,-2874,858
53.678,669,-2211,161
53.697,1936,1474,1348
53.718,2722,3630,-1303
53.737,964,-1137,-492
53.757,694,-777,674
53.777,961,-1433,1572
53.797,1129,-1418,987
53.817,498,-982,292
53.837,748,-581,364
53.857,1159,-173,128
53.877,1324,311,330
53.896,959,501,600
53.917,736,328,329
53.936,839,-51,239
53.957,1085,-576,372
53.976,998,-536,340
53.998,875,-106,328
54.018,933,289,478
54.038,989,508,411
54.058,977,512,271
54.078,1035,126,118
54.097,1053,133,362
54.118,1290,612,712
54.137,1374,547,147
54.158,1296,502,-1
54.177,1474,609,239
54.197,2055,551,428
54.217,2464,736,266
54.237,1824,1215,258
54.257,1738,383,1157
54.277,1689,181,1117
54.296,1074,815,227
54.317,260,-954,207
54.336,672,-1562,792
54.357,570,29,434
54.376,222,-68,-369
54.396,96,-376,-39
54.416,42,-208,266
54.436,205,-151,-30
54.456,480,-248,-31
54.476,688,-279,107
54.495,1024,-372,83
54.516,1594,-503,202
54.535,1912,-662,355
54.556,1986,-801,485
54.575,1725,-516,611
54.595,1000,-1020,1184
54.615,595,-2817,823
54.635,684,-1945,268
54.655,2163,1773,1061
54.675,2491,3151,-1744
54.695,858,-944,-374
54.715,801,-924,748
54.734,908,-1503,1641
54.755,912,-1188,1075
54.774,595,-878,280
54.795,793,-644,461
54.814,1169,-138,202
54.834,1371,300,243
54.854,987,510,331
54.874,759,265,214
54.894,860,-36,300
54.914,1098,-583,470
54.934,945,-587,249
54.954,899,-114,225
54.974,989,371,355
54.994,954,718,430
55.015,970,424,331
55.035,1120,-83,156
55.055,1133,-133,201
55.075,1189,465,478
55.094,1337,771,374
55.115,1325,574,45
55.134,1444,477,158
55.155,1973,631,437
55.174,2403,753,292
55.194,1834,1138,254
55.214,1694,106,1004
55.234,1827,232,1232
55.254,1111,929,442
55.274,331,-719,161
55.293,735,-1477,547
55.314,697,128,671
55.333,255,138,-213
55.354,102,-245,-47
55.373,120,-249,360
55.393,283,-320,158
55.413,503,-339,49
55.433,598,-345,148
55.453,771,-469,111
55.473,1254,-579,258
55.492,1806,-676,467
55.513,1992,-833,897
55.532,1864,-751,529
55.553,1049,-1292,952
55.572,663,-2483,591
55.592,1073,-1658,175
55.612,2348,2434,1014
55.632,2204,2633,-2149
55.652,1003,-1402,-291
55.672,793,-1033,883
55.691,929,-1461,1645
55.712,682,-1010,922
55.732,493,-992,434
55.752,974,-779,365
55.772,1538,-171,2
55.791,1255,449,255
55.812,717,767,551
55.831,688,373,428
55.852,945,-171,448
55.871,1144,-904,461
55.891,837,-555,95
55.911,871,119,355
55.931,1063,617,415
55.951,1030,761,357
55.971,1020,275,148
55.990,1043,-118,17
56.012,1096,176,373
56.032,1324,668,632
56.052,1309,672,229
56.072,1238,567,121
56.092,1478,578,330
56.112,2124,555,493
56.131,2300,707,410
56.152,1642,664,377
56.171,1807,-120,1169
56.192,1623,396,857
56.211,847,552,-19
56.231,400,-1781,417
56.251,757,-585,753
56.271,316,568,-168
56.291,106,-29,-342
56.311,212,-266,245
56.330,255,-352,179
56.351,368,-340,-62
56.370,564,-268,-5
56.391,705,-336,41
56.410,1048,-515,139
56.430,1555,-564,138
56.450,1874,-576,416
56.470,1885,-420,685
56.490,1959,-554,556
56.510,1086,-1983,966
56.529,562,-2228,597
56.550,1083,-1160,679
56.569,2787,2042,160
56.590,1978,811,-1539
56.610,1091,-672,38
56.629,461,-943,1341
56.650,454,-978,1485
56.669,566,-886,578
56.690,961,-1292,214
56.709,1313,-594,275
56.729,1344,101,237
56.749,908,554,481
56.769,704,448,524
56.789,872,141,372
56.809,1065,-387,417
56.828,989,-669,217
56.849,820,-244,204
56.868,914,292,478
56.889,982,688,437
56.908,945,617,288
56.928,1039,-3,133
56.948,1053,-226,194
56.968,1092,150,395
56.988,1248,638,531
57.009,1267,598,290
57.029,1286,411,171
57.049,1462,466,326
57.069,1802,681,456
57.089,2261,622,335
57.109,1907,905,241
57.128,1663,111,946
57.149,1824,87,1239
57.168,1225,745,296
57.189,359,-656,158
57.208,724,-1688,584
57.228,687,-129,531
57.248,198,159,-172
57.268,51,-66,-268
57.288,112,-26,201
57.308,199,-157,203
57.327,419,-252,44
57.348,641,-347,23
57.367,769,-423,33
57.388,1019,-542,157
57.407,1632,-529,249
57.427,2091,-785,553
57.447,1940,-602,510
57.467,1741,-353,730
57.488,1003,-2191,1340
57.507,479,-2886,150
57.527,1183,-1119,775
57.547,2953,4057,482
57.567,1080,534,-1439
57.587,1097,-687,232
57.607,955,-795,1049
57.626,968,-1161,1229
57.647,703,-1119,718
57.666,629,-966,270
57.687,924,-440,310
57.706,1328,166,147
57.726,1234,383,339
57.746,812,442,404
57.766,776,204,263
57.786,964,-170,379
57.806,1077,-642,472
57.826,899,-482,173
57.846,906,46,285
57.865,987,683,376
57.886,934,881,300
57.905,994,227,254
57.926,1111,-189,297
57.945,1196,-47,208
57.965,1226,521,372
57.985,1288,730,298
58.006,1251,552,216
58.027,1415,538,466
58.046,1804,569,528
58.066,2254,512,366
58.086,1829,853,283
58.106,1611,-20,819
58.126,1705,-11,1090
58.146,1211,808,206
58.165,335,-783,44
58.186,613,-1264,616
58.205,548,507,348
58.226,257,342,-433
58.245,330,-110,86
58.265,450,-284,313
58.285,515,-412,8
58.305,657,-418,-2
58.325,737,-395,77
58.345,899,-511,143
58.365,1246,-567,115
58.385,1632,-556,188
58.405,1850,-749,432
58.425,1838,-632,379
58.445,1348,-541,566
58.464,878,-2093,918
58.485,712,-2307,71
58.504,1302,-531,730
58.525,2864,4184,135
58.544,1061,-601,-1081
58.564,1000,-1173,549
58.584,984,-1476,1203
58.604,1027,-966,740
58.624,582,-676,335
58.644,761,-471,424
58.663,1107,-405,376
58.684,1316,-194,238
58.703,1052,88,440
58.724,797,361,448
58.743,871,306,304
58.763,1003,-39,368
58.783,964,-358,444
58.803,884,-304,316
58.823,911,-6,364
58.843,990,370,350
58.862,933,572,376
58.883,972,356,226
58.902,1112,52,128
58.923,1141,145,348
58.942,1244,482,472
58.962,1287,519,316
58.982,1272,432,57
59.003,1320,460,171
59.024,1778,680,366
59.043,2157,639,361
59.063,1788,986,275
59.083,1596,350,716
59.103,1759,-283,1271
59.123,1338,431,493
59.143,600,156,304
59.162,508,-1454,467
59.183,681,-517,642
59.203,341,7,161
59.223,201,-353,-151
59.243,69,-245,148
59.262,25,-49,193
59.283,252,-132,44
59.302,541,-255,136
59.323,729,-340,99
59.342,1017,-395,149
59.362,1572,-534,276
59.382,1929,-900,600
59.402,1863,-966,786
59.422,1629,-494,374
59.442,1001,-836,1105
59.461,697,-2492,673
59.482,928,-1272,138
59.501,2313,2188,747
59.522,2062,1901,-1788
59.541,1051,-790,-164
59.561,940,-1248,1372
59.581,1020,-1315,1107
59.601,356,-938,407
59.621,513,-909,530
59.641,1107,-513,200
59.660,1670,115,335
59.681,1048,444,546
59.700,627,219,351
59.721,781,6,254
59.740,1164,-295,567
59.761,1020,-465,282
59.780,782,-217,145
59.800,885,127,339
59.820,1044,380,354
59.840,993,327,329
59.860,916,11,259
59.880,1038,-248,147
59.899,1091,-52,318
59.920,1060,413,351
59.939,1160,720,509
59.960,1247,566,357
59.979,1259,272,56
60.000,1369,312,195
60.021,1722,623,350
60.040,2208,626,264
60.060,1927,975,177
60.081,1525,388,679
60.100,1763,-188,1403
60.121,1363,393,675
60.140,606,467,199
60.161,315,-1424,256
60.180,731,-686,710
60.200,479,167,145
60.220,266,-182,-354
60.240,144,-85,81
60.260,186,-111,180
60.280,407,-258,3
60.299,642,-234,68
60.320,786,-278,74
60.339,1238,-447,109
60.360,1788,-658,254
60.379,1903,-744,517
60.399,1929,-596,674
60.419,1599,-662,770
60.439,752,-1828,1147
60.459,557,-2325,430
60.479,960,-1096,670
60.498,2603,2246,281
60.519,1876,1229,-1612
60.538,797,-601,77
60.559,575,-970,1313
60.578,1224,-1263,1409
60.598,734,-1044,294
60.618,570,-904,382
60.638,858,-391,433
60.658,1418,-74,209
60.678,1307,213,355
60.697,833,385,336
60.718,739,337,219
60.737,902,98,454
60.758,1055,-482,468
60.777,942,-644,140
60.797,886,-227,228
60.817,979,305,488
60.837,1017,534,371
60.857,915,324,215
60.877,1080,-16,212
60.896,1141,-134,47
60.917,1110,268,282
60.936,1243,645,468
60.957,1244,488,196
60.976,1290,411,236
60.998,1504,525,407
61.018,1699,615,304
61.038,2269,515,292
61.058,1801,867,347
61.078,1457,21,1019
61.097,1639,-63,1014
61.118,1256,589,353
61.137,382,-308,66
61.158,519,-1542,379
61.177,749,-281,535
61.197,348,62,-50
61.217,150,-146,-233
61.237,170,-6,156
61.257,261,-36,229
61.277,467,-237,143
61.297,732,-417,124
61.317,811,-514,126
61.336,1078,-623,146
61.357,1531,-749,195
61.376,1742,-874,498
61.397,1799,-759,597
61.416,1619,-359,542
61.436,996,-1085,1084
61.456,704,-2594,517
61.476,877,-1361,233
61.496,2268,2356,816
61.516,1720,1790,-1131
61.535,1085,-661,-417
61.556,965,-561,773
61.575,940,-1356,1289
61.596,761,-866,596
61.615,554,-743,276
61.635,832,-565,576
61.655,1151,-175,297
61.675,1332,48,357
61.695,1012,169,425
61.715,800,99,272
61.734,891,-49,331
61.755,1035,-390,448
61.774,930,-455,318
61.795,861,-108,305
61.814,954,363,412
61.834,999,495,450
61.854,879,366,363
61.874,827,128,217
61.894,1114,-72,201
61.914,1156,-46,90
61.934,1118,375,266
61.954,1215,469,433
61.974,1179,291,232
61.994,1164,275,331
62.015,1357,378,494
62.035,1568,511,389
62.055,1851,318,254
62.075,1918,493,288
62.094,1515,485,602
62.115,1552,-270,1025
62.134,1374,4,540
62.155,833,517,267
62.174,336,-1011,109
62.194,702,-1247,435
62.214,512,-140,270
62.234,191,41,-389
62.254,128,93,-195
62.274,238,9,119
62.293,333,-191,133
62.314,564,-200,154
62.333,798,-315,94
62.354,937,-412,140
62.373,1225,-513,281
62.393,1531,-627,267
62.413,1701,-743,418
62.433,1773,-787,759
62.453,1583,-287,529
62.473,1176,-874,868
62.492,695,-2409,588
62.513,695,-1198,103
62.532,1587,435,898
62.553,2213,3748,-356
62.572,743,-328,-957
62.592,1169,-1193,252
62.612,1236,-1503,1200
62.632,1150,-803,943
62.652,574,-288,289
62.672,553,-332,425
62.691,897,-231,323
62.712,1381,-107,312
62.732,1114,243,431
62.752,794,283,404
62.772,823,13,322
62.791,984,-261,438
62.812,1007,-428,366
62.831,869,-224,257
62.852,884,83,370
62.871,966,171,366
62.891,989,23,370
62.911,1001,-159,381
62.931,937,-101,281
62.951,1045,83,176
62.971,1049,376,239
62.991,1096,680,471
63.012,1207,564,455
63.033,1200,190,143
63.052,1270,255,189
63.072,1495,493,406
63.092,1869,421,296
63.112,2296,604,256
63.132,1682,750,333
63.152,1530,4,1045
63.171,1501,-201,1023
63.192,1103,501,412
63.211,288,-313,34
63.232,403,-1557,370
63.251,552,-357,513
63.271,284,67,-365
63.291,169,-114,-360
63.311,164,-124,134
63.331,253,-244,17
63.351,449,-226,-10
63.370,658,-216,49
63.391,845,-304,32
63.410,1315,-378,75
63.431,1716,-461,147
63.450,1942,-606,396
63.470,1887,-532,821
63.490,1528,-691,900
63.510,882,-1948,1108
63.530,403,-2419,509
63.550,985,-969,633
63.569,2533,2692,105
63.590,1467,1022,-945
63.610,798,-573,511
63.630,1066,-1398,1279
63.650,808,-701,506
63.669,327,-606,386
63.690,720,-613,340
63.709,1467,-526,404
63.730,1451,-243,234
63.749,782,328,383
63.769,683,531,446
63.789,947,261,387
63.809,1146,-335,482
63.829,955,-679,142
63.849,802,-374,101
63.868,926,47,376
63.889,1021,296,349
63.908,989,213,429
63.929,1022,-106,301
63.948,1036,-212,135
63.969,1053,135,210
63.988,1150,526,306
64.009,1181,693,239
64.030,1134,472,153
64.049,1232,340,248
64.069,1461,299,330
64.089,1718,288,252
64.109,2156,560,303
64.129,1822,927,238
64.149,1508,469,697
64.168,1509,-153,1238
64.189,1278,196,496
64.208,559,233,110
64.229,267,-1468,420
64.248,596,-528,463
64.269,454,-14,-296
64.288,330,-342,-356
64.308,226,-211,61
64.328,252,-252,4
64.348,424,-279,-64
64.368,614,-180,41
64.388,856,-228,41
64.407,1369,-369,186
64.428,1737,-639,259
64.447,1990,-1049,635
64.468,1741,-946,728
64.488,1039,-603,741
64.507,717,-1498,1064
64.528,681,-2024,465
64.547,945,-786,371
64.568,2372,2689,-154
64.587,1484,1045,-1242
64.607,783,-574,253
64.627,996,-1024,1497
64.647,1181,-780,810
64.667,523,-998,312
64.687,513,-771,467
64.706,911,-212,288
64.727,1638,-16,415
64.746,1145,186,291
64.767,700,0,104
64.786,786,-153,178
64.806,1100,-299,579
64.826,1053,-505,293
64.846,799,-284,280
64.866,889,55,374
64.886,1062,163,178
64.905,1071,162,277
64.926,1014,129,290
64.945,1001,254,161
64.966,1111,540,40
64.985,1220,681,52
65.006,1299,527,191
65.027,1266,386,27
65.046,1410,482,105
65.067,2075,566,419
65.086,2561,792,508
65.106,1842,751,182
65.126,1798,276,1141
65.146,1678,24,1383
65.166,1048,250,457
65.186,266,-827,759
65.205,636,-1215,1023
65.226,758,-428,488
65.245,438,-563,532
65.266,62,-780,641
65.285,-165,-531,658
65.305,-195,-352,572
65.325,-113,-363,626
65.345,-4,-395,655
65.366,77,-357,562
65.385,104,-235,405
65.405,146,-226,301
65.425,230,-296,421
65.445,458,-520,633
65.465,970,-915,823
65.485,1995,-1964,934
65.504,912,-1576,247
65.525,539,-1163,655
65.544,761,-862,209
65.565,794,-653,142
65.584,1040,-774,164
65.604,2901,4507,1756
65.624,2686,4480,-2903
65.644,276,-1918,1371
65.664,1466,-2939,2314
65.684,1393,-1332,-1455
65.703,205,252,775
65.724,427,318,1566
65.743,840,-251,-503
65.764,1707,-640,104
65.783,1239,-889,782
65.804,669,-441,232
65.823,614,345,286
65.843,904,386,800
65.863,1059,-194,429
65.883,930,-362,223
65.903,893,-13,399
65.923,952,146,407
65.942,983,-5,274
65.963,994,-161,221
65.982,901,-78,296
66.004,897,-2,379
66.024,929,16,382
66.043,921,-95,303
66.064,976,-83,199
66.083,1058,17,186
66.104,1094,249,187
66.123,1124,669,218
66.143,1240,780,113
66.163,1304,538,-12
66.183,1883,368,179
66.203,2365,384,436
66.223,1776,903,547
66.243,1356,1217,824
66.263,1174,-334,1152
66.283,1241,-724,713
66.303,712,104,622
66.323,18,-15,582
66.342,25,-1140,496
66.363,262,-649,671
66.382,200,-187,487
66.403,156,-437,172
66.422,67,-556,239
66.442,23,-427,315
66.462,110,-292,270
66.482,228,-266,209
66.502,432,-273,93
66.522,849,-315,101
66.541,1653,-265,351
66.562,2163,-501,870
66.581,1775,-887,918
66.602,1118,-1089,537
66.621,657,-1317,990
66.641,1032,-1824,488
66.661,1564,99,-385
66.681,2049,1856,-434
66.701,1157,17,-363
66.721,850,-479,658
66.740,520,-78,668
66.761,545,-229,532
66.780,883,-463,221
66.801,1314,-482,373
66.820,1119,-200,72
66.841,882,35,364
66.860,864,188,429
66.880,1008,88,311
66.900,1041,-162,347
66.920,995,-389,275
66.940,904,-311,284
66.960,901,-172,344
66.979,938,24,289
67.001,979,121,241
67.021,967,117,258
67.040,908,-54,278
67.061,880,-184,235
67.081,946,-242,261
67.101,1016,-267,253
67.121,955,-196,236
67.140,932,-39,261
67.161,990,15,338
67.180,1022,-66,274
67.201,989,-40,230
67.220,945,107,285
67.240,924,154,276
67.260,1040,14,290
67.280,1153,-78,346
67.300,1082,-169,185
67.320,1002,-24,194
67.340,1075,173,313
67.360,1197,189,300
67.379,1212,122,200
67.400,1179,108,150
67.419,1303,0,293
67.440,1385,-10,532
67.459,1160,-236,662
67.479,985,-487,562
67.499,802,-465,392
67.519,646,-662,275
67.539,693,-709,71
67.559,597,124,181
67.578,367,621,-80
67.599,297,-38,19
67.618,456,-477,167
67.639,634,-650,90
67.658,811,-724,-79
67.678,874,-682,-78
67.698,878,-656,-60
67.718,865,-622,-137
67.738,920,-626,-86
67.758,1073,-562,-104
67.777,835,-460,246
67.798,949,84,221
67.817,1609,-124,-36
67.838,1613,-831,269
67.857,1107,-1145,208
67.877,917,-433,-6
67.897,736,-10,281
67.917,1395,-539,359
67.937,1118,1810,694
67.957,466,1989,858
67.976,909,375,1061
67.999,1881,-724,-318
68.018,531,-1111,-105
68.039,509,-796,604
68.058,912,-257,606
68.079,1064,131,519
68.098,902,-14,266
68.118,868,-239,350
68.138,924,-92,514
68.158,886,51,560
68.178,844,-95,558
68.198,931,-334,462
68.217,949,-285,327
68.238,870,-27,351
68.257,853,163,385
68.278,893,172,383
68.297,905,59,394
68.317,897,-63,369
68.337,916,-64,292
68.357,906,66,374
68.377,904,173,401
68.397,906,179,372
68.416,875,88,391
68.437,940,-5,353
68.456,943,-42,333
68.477,899,2,385
68.496,939,26,444
68.516,931,2,446
68.536,923,-83,416
68.556,905,-111,418
68.576,947,-50,328
68.596,947,114,324
68.615,884,151,374
68.636,796,-266,426
68.655,889,-386,349
68.676,702,-326,263
68.695,648,-118,329
68.715,824,63,325
68.735,1279,26,126
68.755,1190,-89,115
68.775,788,-107,431
68.795,788,-168,404
68.814,972,-273,284
68.835,839,-279,441
68.854,846,-264,472
68.875,931,-313,327
68.894,882,-281,300
68.914,830,-145,371
68.935,851,-126,376
68.954,910,-310,305
68.975,894,-308,303
68.994,863,-292,364
69.015,871,-294,310
69.036,870,-296,307
69.055,846,-238,331
69.076,907,-200,363
69.095,895,-256,361
69.115,880,-299,338
69.135,869,-267,364
69.155,848,-304,390
69.175,848,-298,387
69.195,853,-269,367
69.214,863,-256,333
69.235,841,-266,332
69.254,869,-331,349
69.275,866,-322,342
69.294,850,-359,318
69.315,825,-215,366
69.334,893,-230,378
69.354,873,-340,372
69.374,888,-333,347
69.394,900,-266,352
69.414,855,-315,401
69.434,863,-349,376
69.453,904,-362,292
69.474,1029,-449,230
69.493,1192,-512,167
69.514,1326,-535,131
69.533,1215,-349,171
69.553,1068,20,174
69.573,935,-369,-99
69.593,559,-461,465
69.613,196,-1238,1386
69.633,276,-1690,789
69.652,385,-1152,270
69.673,529,-601,347
69.692,487,16,17
69.713,135,731,-218
69.732,-191,1072,-252
69.752,-24,339,-66
69.772,103,1083,303
69.792,1932,-3584,2092
69.813,1082,-1134,-572
69.832,669,-428,1101
69.852,1459,-309,613
69.872,1053,-858,137
69.892,1190,-1100,329
69.912,856,-814,22
69.932,544,-534,234
69.951,377,-534,391
69.972,288,-787,302
69.991,280,-1123,333
70.013,284,-1088,314
70.033,379,-760,271
70.052,445,-845,37
70.073,425,-897,71
70.092,388,-930,157
70.113,301,-983,249
70.132,241,-940,270
70.152,210,-845,220
70.172,207,-723,200
70.192,228,-830,143
70.212,153,-983,250
70.232,148,-1068,270
70.251,97,-952,269
70.272,21,-876,318
70.291,-63,-905,354
70.312,-171,-858,373
70.331,-285,-723,524
70.351,-80,-1223,398
70.371,-95,-1141,461
70.391,-227,-1031,628
70.411,-280,-1175,563
70.431,-153,-1267,459
70.450,-238,-953,585
70.471,-148,-991,522
70.490,-94,-905,555
70.511,-11,-913,511
70.530,-6,-845,512
70.550,64,-839,464
70.570,70,-782,449
70.590,67,-718,494
70.610,50,-738,455
70.630,105,-769,442
70.650,46,-685,451
70.670,51,-729,470
70.690,51,-836,419
70.710,46,-798,450
70.730,-17,-744,558
70.749,39,-950,511
70.770,11,-965,506
70.789,18,-986,492
70.810,-4,-1033,460
70.829,63,-1086,396
70.849,79,-1089,396
70.869,89,-961,473
70.889,13,-837,565
70.909,-8,-793,543
70.929,-27,-742,557
70.948,-19,-743,544
70.969,35,-770,502
70.988,63,-749,517
71.010,67,-771,513
71.030,115,-860,495
71.050,110,-831,513
71.070,69,-784,537
71.089,43,-833,514
71.110,25,-839,517
71.129,9,-863,515
71.150,7,-871,513
71.169,1,-879,520
71.189,4,-889,507
71.209,4,-940,495
71.229,-4,-899,511
71.249,-4,-902,506
71.269,-10,-864,521
71.288,-8,-849,524
71.309,-11,-813,527
71.328,-9,-817,530
71.349,-7,-804,508
71.368,-9,-848,490
71.388,12,-868,486
71.408,3,-824,511
71.428,3,-846,508
71.448,-4,-845,508
71.468,-3,-898,494
71.488,0,-870,503
71.508,13,-911,501
71.528,4,-872,521
71.548,1,-855,519
71.568,-19,-875,507
71.587,13,-908,484
71.608,-5,-821,512
71.627,-2,-835,495
71.648,-5,-853,493
71.667,0,-841,497
71.687,-4,-827,504
71.707,0,-835,501
71.727,9,-879,490
71.747,9,-862,493
71.767,25,-879,490
71.786,10,-853,507
71.807,6,-857,503
71.826,-5,-853,501
71.847,-3,-865,490
71.866,-9,-854,486
71.886,-3,-890,481
71.906,-2,-879,489
71.926,-9,-882,495
71.946,-1,-896,490
71.966,-7,-871,500
71.985,-5,-862,506
72.007,-5,-876,495
72.027,-3,-868,483
72.047,-18,-849,489
72.067,-27,-855,483
72.086,-37,-838,484
72.107,-39,-817,488
72.126,-33,-860,475
72.147,-30,-860,482
72.166,-25,-855,495
72.186,-21,-867,506
72.206,-26,-904,499
72.226,-14,-927,494
72.246,-19,-899,504
72.266,-34,-885,511
72.285,-44,-881,513
72.306,-32,-893,503
72.325,-52,-855,506
72.346,-48,-856,501
72.366,-59,-852,495
72.385,-51,-863,487
72.406,-49,-844,475
72.425,-60,-860,501
72.446,-52,-861,493
72.465,-42,-877,446
72.485,-36,-881,488
72.505,-48,-863,516
72.525,-35,-880,458
72.545,-34,-895,512
72.565,-36,-886,495
72.584,-48,-861,521
72.605,-41,-872,492
72.624,-40,-879,503
72.645,-59,-858,508
72.664,-62,-850,477
72.684,-67,-874,478
72.704,-54,-858,481
72.724,-57,-824,503
72.744,-47,-843,501
72.764,-40,-853,496
72.783,-11,-874,509
72.804,-8,-858,520
72.823,-4,-898,518
72.844,-11,-897,515
72.863,-12,-868,505
72.883,-25,-845,508
72.903,-33,-873,498
72.923,-34,-865,501
72.943,-34,-840,512
72.963,-40,-854,505
72.982,-28,-859,507
73.004,-22,-862,502
73.024,-26,-867,496
73.044,-32,-855,495
73.064,-43,-845,491
73.084,-28,-868,486
73.104,-29,-859,496
73.123,-19,-865,499
73.144,-16,-857,521
73.163,-17,-864,510
73.184,-9,-856,512
73.203,-11,-866,514
73.223,-13,-869,513
73.244,-14,-863,508
73.263,-15,-859,507
73.284,-16,-855,506
73.303,-23,-845,510
73.323,-21,-850,502
73.343,-18,-866,491
73.363,-13,-851,507
73.383,-20,-850,501
73.403,-9,-866,499
73.422,-6,-866,506
73.443,-9,-868,509
73.462,-3,-869,505
73.483,-7,-849,513
73.502,-10,-852,502
73.522,-11,-841,495
73.542,-23,-830,502
73.562,-21,-863,476
73.582,-8,-862,503
73.602,-8,-837,521
73.621,-2,-845,523
73.642,-7,-869,519
73.661,0,-878,517
73.682,0,-847,517
73.701,6,-884,509
73.721,4,-850,516
73.741,-1,-832,521
73.761,4,-841,518
73.781,11,-854,519
73.801,18,-850,528
73.820,28,-827,543
73.841,30,-843,544
73.860,28,-836,554
73.881,19,-817,552
73.900,10,-836,533
73.920,3,-816,525
73.940,3,-815,527
73.960,3,-828,528
73.980,19,-832,532
74.001,12,-807,532
74.021,16,-827,525
74.041,24,-821,543
74.061,28,-846,554
74.081,26,-853,533
74.101,30,-838,524
74.121,25,-831,525
74.141,15,-823,517
74.161,8,-820,514
74.181,15,-828,521
74.201,30,-831,536
74.220,33,-820,567
74.241,49,-832,572
74.260,61,-854,563
74.281,53,-823,562
74.300,51,-825,545
74.320,50,-823,534
74.340,27,-778,532
74.360,35,-806,530
74.380,44,-806,534
74.400,34,-800,545
74.419,57,-846,532
74.440,55,-839,543
74.459,54,-841,527
74.480,36,-848,519
74.499,36,-852,517
74.519,27,-829,519
74.539,36,-817,518
74.559,29,-832,515
74.579,53,-841,519
74.599,45,-802,524
74.618,50,-834,521
74.639,52,-851,527
74.658,46,-850,544
74.679,43,-826,565
74.698,11,-818,553
74.718,15,-849,548
74.738,12,-839,531
74.758,18,-843,517
74.778,4,-839,514
74.798,5,-846,523
74.817,11,-828,533
74.838,20,-828,529
74.857,29,-849,533
74.878,30,-826,540
74.897,39,-840,528
74.917,28,-840,533
74.937,21,-826,529
74.957,21,-827,528
74.977,19,-845,524
74.999,24,-854,523
75.018,25,-835,522
75.039,30,-845,529
75.058,14,-849,524
75.079,21,-838,525
75.098,30,-851,521
75.118,28,-844,520
75.138,33,-846,520
75.158,36,-843,518
75.178,37,-845,519
75.198,34,-835,513
75.217,37,-840,515
75.238,34,-863,512
75.257,25,-840,518
75.278,34,-850,527
75.297,30,-844,526
75.317,25,-832,534
75.337,34,-828,526
75.357,23,-866,510
75.377,19,-845,513
75.397,22,-871,497
75.416,14,-838,519
75.437,12,-830,514
75.456,21,-857,507
75.477,34,-867,506
75.496,40,-848,508
75.516,44,-855,498
75.536,45,-855,503
75.556,48,-843,508
75.576,54,-880,496
75.596,57,-854,503
75.615,53,-847,502
75.636,35,-869,490
75.655,41,-855,479
75.676,46,-853,484
75.695,40,-880,469
75.715,48,-903,449
75.735,45,-883,453
75.755,46,-881,451
75.775,36,-864,458
75.795,32,-878,448
75.814,39,-899,450
75.835,40,-885,453
75.854,46,-891,454
75.875,40,-867,471
75.894,36,-878,468
75.914,31,-889,473
75.935,32,-876,464
75.954,35,-865,466
75.975,24,-860,468
75.994,16,-866,463
76.015,16,-860,469
76.036,33,-891,461
76.055,39,-888,466
76.076,52,-903,464
76.095,45,-908,474
76.115,34,-890,478
76.135,23,-866,479
76.155,8,-882,467
76.175,13,-884,458
76.195,13,-869,454
76.214,6,-882,450
76.235,10,-886,451
76.254,10,-887,451
76.275,10,-878,453
76.294,16,-894,450
76.315,38,-909,447
76.334,47,-905,456
76.354,59,-905,456
76.374,45,-902,464
76.394,45,-904,469
76.414,56,-911,455
76.434,40,-877,462
76.453,30,-875,461
76.474,20,-875,453
76.493,23,-873,455
76.514,10,-867,448
76.533,4,-859,444
76.553,-3,-860,439
76.573,-2,-873,437
76.593,-1,-881,433
76.613,-4,-869,439
76.633,0,-878,446
76.652,3,-881,438
76.673,8,-898,433
76.692,8,-892,440
76.713,26,-905,438
76.732,33,-931,436
76.752,45,-923,457
76.772,52,-914,470
76.792,38,-905,468
76.813,26,-899,460
76.832,25,-900,451
76.852,12,-874,454
76.872,5,-878,443
76.892,-1,-889,431
76.912,4,-888,423
76.932,9,-898,427
76.951,9,-911,431
76.972,3,-906,438
76.991,1,-904,438
77.013,10,-899,439
77.033,12,-905,428
77.052,4,-900,427
77.073,-6,-898,427
77.092,-1,-897,423
77.113,7,-899,425
77.132,6,-914,417
77.152,24,-911,428
77.172,30,-916,442
77.192,34,-926,440
77.212,31,-909,442
77.232,26,-909,426
77.251,15,-898,420
77.272,8,-876,413
77.291,3,-884,408
77.312,3,-890,414
77.331,11,-882,424
77.351,28,-898,422
77.371,27,-902,436
77.391,42,-918,440
77.411,43,-927,433
77.431,36,-915,430
77.450,16,-910,429
77.471,30,-909,420
77.490,25,-902,436
77.511,29,-900,447
77.530,11,-834,447
77.550,16,-868,425
77.570,5,-860,437
77.590,14,-848,445
77.610,25,-866,435
77.630,42,-909,429
77.650,48,-904,443
77.670,38,-883,455
77.690,39,-919,449
77.710,35,-900,459
77.730,9,-871,458
77.749,14,-890,452
77.770,5,-865,458
77.789,-1,-864,466
77.810,5,-873,469
77.829,6,-872,476
77.849,22,-902,481
77.869,15,-843,495
77.889,14,-879,518
77.909,14,-855,517
77.929,14,-873,515
77.948,31,-882,522
77.969,9,-839,529
77.988,15,-908,508
78.010,52,-877,520
78.030,11,-791,557
78.049,3,-805,540
78.070,-3,-824,534
78.089,0,-815,513
78.110,1,-820,511
78.129,30,-852,506
78.149,29,-856,521
78.169,37,-866,529
78.189,38,-858,538
78.209,15,-822,563
78.229,24,-845,548
78.248,11,-858,531
78.269,24,-863,525
78.288,12,-828,525
78.309,0,-841,518
78.328,1,-839,517
78.348,2,-814,521
78.368,-4,-800,537
78.388,10,-811,540
78.408,-1,-808,544
78.428,3,-812,550
78.447,37,-816,367
78.468,72,-876,802
78.488,7,-816,450
78.508,90,-843,614
78.528,36,-767,561
78.547,48,-790,570
78.568,37,-783,574
78.587,59,-814,564
78.608,71,-784,584
78.627,63,-780,588
78.647,66,-791,586
78.667,47,-785,582
78.687,51,-791,593
78.707,56,-798,594
78.727,62,-812,585
78.746,59,-811,581
78.767,57,-820,568
78.786,45,-797,575
78.807,32,-787,571
78.826,17,-792,562
78.846,18,-787,566
78.866,31,-803,562
78.886,37,-809,559
78.906,41,-815,568
78.926,50,-816,570
78.946,41,-826,557
78.966,38,-814,561
78.985,45,-812,565
79.007,42,-804,564
79.027,39,-809,557
79.047,41,-817,568
79.067,40,-800,562
79.086,40,-800,558
79.107,30,-866,508
79.126,-5,-725,542
79.147,44,-846,546
79.166,47,-851,547
79.186,35,-807,580
79.206,35,-863,552
79.226,38,-853,567
79.246,21,-825,575
79.266,34,-814,587
79.285,25,-812,580
79.306,25,-795,574
79.325,17,-759,590
79.346,21,-765,602
79.366,26,-765,614
79.385,39,-766,629
79.406,37,-788,624
79.425,39,-787,627
79.446,33,-766,616
79.465,28,-774,600
79.485,27,-778,596
79.505,23,-773,587
79.525,32,-798,583
79.545,37,-786,586
79.565,43,-784,588
79.584,46,-785,589
79.605,46,-786,588
79.624,50,-776,598
79.645,41,-770,599
79.664,46,-769,597
79.684,39,-788,597
79.704,52,-791,604
79.724,56,-789,602
79.744,49,-778,615
79.764,22,-795,604
79.783,40,-806,599
79.804,21,-759,610
79.823,13,-769,608
79.844,13,-780,598
79.863,6,-777,593
79.883,14,-803,585
79.903,15,-805,585
79.923,27,-796,586
79.943,25,-795,586
79.963,27,-817,576
79.982,27,-795,586
80.004,18,-796,577
80.024,18,-804,574
80.044,22,-806,574
80.064,29,-807,574
80.083,29,-808,580
80.104,26,-807,576
80.123,22,-817,569
80.144,28,-808,561
80.163,25,-794,565
80.183,22,-811,553
80.203,26,-804,555
80.223,30,-801,563
80.244,34,-821,561
80.263,35,-816,567
80.283,28,-812,570
80.303,34,-802,567
80.323,20,-783,581
80.343,26,-795,567
80.363,19,-781,580
80.382,26,-795,585
80.403,28,-792,589
80.422,30,-790,590
80.443,29,-802,587
80.462,24,-807,577
80.482,19,-809,576
80.502,10,-799,572
80.522,14,-812,561
80.542,8,-805,568
80.562,15,-811,569
80.581,13,-808,571
80.602,15,-816,569
80.621,15,-818,568
80.642,14,-815,569
80.661,12,-817,562
80.681,11,-805,563
80.701,15,-814,555
80.721,18,-805,567
80.741,28,-794,573
80.761,39,-820,571
80.780,42,-818,567
80.801,32,-809,563
80.820,31,-825,548
80.841,15,-805,557
80.860,18,-827,538
80.880,-2,-804,539
80.900,-5,-809,536
80.920,-6,-827,537
80.940,-3,-825,547
80.960,-3,-807,562
80.979,4,-818,557
81.001,11,-824,563
81.021,31,-827,571
81.041,35,-828,586
81.061,38,-816,586
81.081,39,-837,579
81.101,26,-812,576
81.121,25,-809,568
81.141,7,-809,555
81.161,2,-808,551
81.180,-3,-788,559
81.201,-2,-787,560
81.220,6,-817,552
81.241,2,-814,560
81.260,11,-812,557
81.280,7,-837,552
81.300,19,-837,552
81.320,9,-815,560
81.340,11,-839,549
81.360,4,-819,550
81.379,13,-822,551
81.400,29,-816,548
81.419,22,-812,548
81.440,25,-800,555
81.459,31,-811,553
81.479,26,-819,554
81.499,43,-839,549
81.519,37,-808,560
81.539,20,-822,560
81.559,6,-833,548
81.579,-6,-801,557
81.599,-3,-815,539
81.618,-1,-830,538
81.639,9,-824,542
81.658,20,-816,559
81.679,27,-834,557
81.698,30,-838,556
81.718,32,-828,556
81.738,29,-820,553
81.758,27,-839,543
81.778,19,-818,547
81.798,16,-814,544
81.817,14,-808,537
81.838,23,-824,539
81.857,34,-819,544
81.878,25,-818,549
81.897,25,-837,549
81.917,16,-833,555
81.937,13,-839,552
81.957,3,-824,546
81.977,8,-824,537
81.999,10,-825,538
82.018,17,-828,537
82.039,22,-812,549
82.058,38,-834,545
82.079,36,-832,538
82.098,35,-821,545
82.118,21,-814,545
82.138,12,-794,536
82.158,23,-826,525
82.178,44,-812,526
82.198,49,-778,559
82.217,67,-803,555
82.238,65,-823,575
82.257,66,-820,588
82.278,48,-789,597
82.297,46,-824,583
82.317,42,-804,593
82.337,35,-784,575
82.357,43,-830,557
82.377,54,-831,560
82.397,48,-795,566
82.416,46,-827,551
82.437,45,-837,545
82.456,39,-839,555
82.477,27,-824,553
82.496,4,-807,548
82.516,30,-809,538
82.536,33,-826,520
82.556,45,-859,498
82.576,29,-792,538
82.596,-4,-714,581
82.615,3,-807,598
82.636,70,-834,592
82.655,73,-757,625
82.676,93,-796,603
82.695,121,-828,574
82.715,118,-827,566
82.735,101,-795,578
82.755,96,-803,571
82.775,72,-783,562
82.795,38,-777,565
82.814,35,-832,532
82.835,34,-820,528
82.854,20,-803,524
82.875,11,-834,501
82.894,-5,-845,495
82.915,-3,-848,503
82.935,-3,-847,532
82.954,15,-861,557
82.975,18,-875,563
82.994,44,-888,555
83.015,37,-862,544
83.036,51,-880,518
83.055,27,-846,513
83.076,41,-855,510
83.095,24,-816,517
83.115,17,-810,525
83.135,9,-812,530
83.155,40,-847,507
83.175,41,-792,514
83.195,34,-807,501
83.214,39,-892,484
83.235,47,-833,502
83.254,39,-805,519
83.275,10,-875,506
83.294,58,-929,486
83.314,36,-807,534
83.334,41,-838,524
83.354,29,-866,518
83.374,37,-838,519
83.394,30,-851,513
83.413,23,-857,508
83.434,10,-847,512
83.453,-1,-841,513
83.474,-5,-840,514
83.493,2,-849,533
83.513,-5,-863,542
83.533,-10,-872,516
83.553,-4,-828,523
83.573,19,-844,525
83.593,18,-823,553
83.612,28,-817,556
83.633,35,-851,543
83.652,46,-848,530
83.673,39,-816,542
83.692,51,-823,527
83.712,41,-829,528
83.732,23,-793,544
83.752,5,-781,548
83.772,33,-832,540
83.792,58,-813,558
83.813,57,-794,576
83.832,54,-831,564
83.852,57,-821,566
83.872,39,-800,574
83.892,35,-809,568
83.912,20,-811,558
83.932,23,-823,540
83.951,19,-807,534
83.972,12,-805,534
83.991,-3,-822,517
84.012,14,-872,521
84.033,13,-865,523
84.052,6,-847,527
84.073,8,-884,512
84.092,9,-882,508
84.112,7,-838,513
84.132,-1,-842,509
84.152,15,-856,510
84.172,17,-836,523
84.192,13,-823,538
84.211,9,-816,546
84.232,6,-835,548
84.251,-1,-811,557
84.272,2,-815,560
84.291,-6,-802,561
84.311,-12,-820,541
84.331,-13,-798,544
84.351,-3,-845,557
84.371,39,-958,518
84.391,39,-916,514
84.410,15,-876,506
84.431,-5,-895,480
84.450,16,-891,467
84.471,-2,-802,501
84.490,0,-807,500
84.510,5,-824,501
84.530,22,-825,507
84.550,19,-805,514
84.570,29,-857,499
84.590,31,-908,475
84.610,14,-859,493
84.630,-8,-846,506
84.650,-13,-848,502
84.670,-3,-849,496
84.690,-12,-850,497
84.709,-60,-848,519
84.730,-73,-873,528
84.749,-83,-875,550
84.770,-23,-940,529
84.789,31,-923,543
84.809,70,-903,551
84.829,100,-858,549
84.849,74,-812,558
84.869,80,-789,539
84.889,64,-732,544
84.908,54,-750,508
84.929,64,-800,467
84.948,90,-824,450
84.969,107,-825,463
84.988,101,-870,478
85.009,82,-892,496
85.030,89,-951,491
85.049,71,-871,513
85.070,71,-873,499
85.089,28,-856,489
85.109,6,-865,492
85.129,2,-825,482
85.149,3,-783,526
85.169,12,-831,510
85.189,27,-874,493
85.208,61,-903,478
85.229,62,-859,510
85.248,45,-877,532
85.269,9,-866,534
85.288,36,-845,540
85.308,65,-834,534
85.328,72,-846,512
85.348,67,-804,502
85.368,77,-839,473
85.388,41,-791,478
85.407,47,-794,499
85.428,84,-839,515
85.447,102,-852,544
85.468,101,-854,546
85.488,83,-857,547
85.507,40,-831,517
85.528,7,-866,495
85.547,17,-829,502
85.568,1,-804,519
85.587,12,-852,513
85.607,17,-843,521
85.627,40,-863,528
85.647,44,-848,544
85.667,30,-836,548
85.687,14,-835,528
85.706,19,-845,509
85.727,26,-835,509
85.746,38,-848,515
85.767,31,-843,520
85.786,21,-840,519
85.806,19,-840,521
85.826,8,-853,514
85.846,12,-838,515
85.866,-4,-830,520
85.886,6,-855,508
85.905,4,-845,507
85.926,10,-864,506
85.945,8,-860,519
85.966,12,-872,516
85.985,20,-858,523
86.006,25,-865,523
86.027,31,-870,517
86.046,28,-864,516
86.067,65,-884,518
86.086,41,-846,534
86.106,60,-890,526
86.126,52,-865,528
86.146,30,-838,548
86.166,40,-873,574
86.186,35,-830,537
86.205,6,-790,528
86.226,-3,-895,478
86.245,-2,-839,466
86.266,-30,-780,485
86.285,-15,-875,461
86.306,-16,-838,454
86.325,-2,-869,437
86.345,26,-923,395
86.366,37,-955,371
86.385,29,-933,383
86.406,68,-977,388
86.425,93,-995,397
86.445,105,-936,471
86.465,83,-903,434
86.485,83,-941,421
86.505,43,-939,387
86.525,-17,-874,333
86.544,-48,-865,269
86.565,-38,-855,236
86.584,-78,-855,228
86.604,-50,-944,240
86.624,33,-1072,213
86.644,69,-1013,284
86.664,72,-1018,356
86.684,42,-1101,347
86.703,79,-1107,306
86.724,9,-943,340
86.743,-60,-936,295
86.764,-59,-926,250
86.783,-23,-913,254
86.804,-27,-983,208
86.823,42,-1073,184
86.843,81,-1062,189
86.863,111,-1103,166
86.883,114,-1107,92
86.903,-13,-1016,178
86.923,-7,-1076,101
86.942,-83,-1036,93
86.963,-121,-1160,116
86.982,-95,-1022,50
87.003,67,-1090,13
87.024,85,-975,-21
87.043,113,-1046,16
87.064,70,-900,15
87.083,42,-915,99
87.103,13,-774,193
87.123,51,-784,208
87.143,150,-810,260
87.163,198,-746,282
87.183,232,-844,285
87.203,404,-1036,191
87.223,525,-1098,33
87.243,496,-885,54
87.263,390,-826,122
87.283,293,-938,117
87.302,208,-975,110
87.323,229,-936,52
87.342,208,-901,73
87.363,185,-946,105
87.382,143,-1004,143
87.402,97,-1003,219
87.422,39,-987,194
87.442,88,-986,131
87.462,76,-961,94
87.482,61,-977,33
87.501,31,-936,43
87.522,66,-975,51
87.541,67,-1057,45
87.562,122,-1100,26
87.581,117,-1077,13
87.601,78,-1059,-2
87.621,7,-1039,-6
87.641,-2,-1020,1
87.661,-7,-1040,-6
87.681,-6,-1041,-6
87.700,36,-1124,-29
87.721,75,-1155,-44
87.740,63,-1067,-20
87.761,-6,-1014,7
87.780,-9,-954,-45
87.800,-86,-937,45
87.820,-220,-891,30
87.840,-119,-1000,-1
87.860,8,-1016,-75
87.880,91,-1035,-112
87.899,121,-1023,-48
87.920,117,-1081,-62
87.939,91,-1076,-61
87.960,51,-1015,-44
87.979,6,-971,-17
88.000,0,-1030,-49
88.021,-4,-1027,-38
88.040,-4,-1019,-59
88.061,-2,-1038,-79
88.081,1,-1030,-84
88.100,-19,-987,-63
88.121,-27,-1023,-57
88.140,-8,-1043,-62
88.161,-2,-1047,-81
88.180,7,-1034,-89
88.200,-11,-1020,-106
88.220,-11,-1034,-110
88.240,-9,-1019,-122
88.260,-26,-972,-105
88.280,-25,-1016,-117
88.299,-19,-1053,-142
88.320,-17,-1048,-147
88.339,-23,-1007,-140
88.360,-5,-1030,-144
88.379,24,-1016,-144
88.399,53,-1021,-123
88.419,60,-1003,-88
88.439,48,-987,-75
88.459,13,-968,-75
88.479,-11,-982,-103
88.498,-22,-1006,-131
88.519,-33,-1007,-150
88.538,-38,-1012,-171
88.559,-7,-1035,-198
88.578,-20,-1019,-215
88.598,-30,-1026,-222
88.618,-36,-1048,-215
88.638,-38,-1025,-217
88.658,-10,-1045,-219
88.678,18,-1025,-216
88.697,31,-988,-216
88.718,17,-986,-193
88.737,3,-985,-169
88.758,16,-993,-124
88.777,32,-979,-95
88.797,47,-976,-104
88.817,41,-998,-94
88.837,6,-994,-111
88.857,-4,-1010,-109
88.877,-24,-1001,-135
88.896,-47,-994,-150
88.917,-44,-993,-162
88.936,-54,-988,-185
88.957,-30,-994,-181
88.976,-4,-1032,-193
88.998,-7,-1019,-217
89.018,-14,-1009,-190
89.038,-7,-1028,-206
89.058,-65,-980,-169
89.078,-66,-1012,-182
89.097,-72,-1021,-199
89.118,-98,-1014,-179
89.137,-131,-1050,-190
89.158,-153,-1050,-197
89.177,-153,-1056,-230
89.197,-169,-1054,-258
89.217,-178,-1022,-263
89.237,-172,-1057,-248
89.257,-174,-1053,-253
89.277,-175,-1035,-242
89.296,-151,-1046,-222
89.317,-132,-1035,-221
89.336,-126,-1028,-199
89.357,-112,-1021,-175
89.376,-96,-1002,-139
89.396,-105,-1013,-117
89.416,-84,-1008,-86
89.436,-99,-999,-66
89.456,-67,-1066,-88
89.476,-47,-1020,-63
89.495,-51,-1080,-54
89.516,-38,-1091,-45
89.535,-36,-1057,-72
89.556,-43,-1047,-46
89.575,1,-1083,-75
89.595,66,-1093,-99
89.615,65,-1064,-81
89.635,86,-1053,-86
89.655,28,-1016,-16
89.675,97,-1099,-16
89.694,140,-1035,15
89.715,230,-1110,57
89.734,449,-1293,22
89.755,561,-1350,5
89.774,542,-1202,132
89.794,520,-1294,88
89.814,471,-1180,137
89.834,135,-955,248
89.854,-20,-1043,158
89.874,-254,-1092,-69
89.894,-409,-537,-247
89.914,1263,223,-929
89.934,907,2393,397
89.954,1460,-3750,655
89.974,334,-526,-1263
89.993,632,111,417
90.015,317,267,575
90.035,412,-261,377
90.054,1041,-1429,824
90.075,715,-744,-38
90.094,326,169,-137
90.115,162,575,153
90.134,1221,-3948,2798
90.154,2186,802,-279
90.174,124,-40,265
90.194,515,-814,-57
90.214,583,27,-285
90.234,1399,-386,514
90.253,1159,-648,82
90.274,556,-238,-49
90.293,758,109,313
90.314,1078,-507,360
90.333,974,-755,275
90.353,811,-380,279
90.373,797,-2,282
90.393,899,-169,392
90.413,889,-487,320
90.433,883,-607,208
90.452,905,-292,288
90.473,883,-167,296
90.492,892,-262,273
90.513,889,-155,427
90.532,961,-257,321
90.552,931,-165,221
90.572,887,-152,293
90.592,913,-242,225
90.612,944,-66,300
90.632,932,6,300
90.651,882,-30,277
90.672,930,-166,314
90.691,986,-234,260
90.712,908,-15,221
90.732,907,-22,247
90.751,819,-155,352
90.772,971,-289,383
90.791,975,-291,236
90.812,896,-327,327
90.831,880,-328,338
90.851,976,-393,289
90.871,888,-320,234
90.891,898,-276,176
90.911,938,-324,18
90.931,928,-467,-3
90.950,867,-480,-5
90.971,870,-574,-69
90.990,947,-449,-206
91.012,865,-321,-144
91.032,849,-357,-62
91.052,995,-394,-99
91.072,1000,-221,-69
91.091,883,-261,12
91.112,943,-261,37
91.131,970,-35,70
91.152,958,136,160
91.171,988,159,178
91.191,1005,32,40
91.211,942,95,-45
91.231,847,40,130
91.251,1071,-618,296
91.271,1039,-64,146
91.290,900,30,258
91.311,890,-14,401
91.330,990,-145,387
91.351,962,-428,373
91.370,954,-278,208
91.390,923,-75,113
91.410,924,-196,173
91.430,919,-250,157
91.450,949,-464,164
91.470,948,-389,163
91.489,913,-188,98
91.510,906,-139,123
91.529,979,-273,116
91.550,993,-392,28
91.569,921,-378,104
91.589,896,-356,52
91.610,942,-232,10
91.629,962,-125,160
91.650,936,-134,179
91.669,935,-187,92
91.689,939,-242,76
91.709,911,-244,154
91.729,950,-275,290
91.749,983,-287,448
91.769,1065,89,605
91.788,890,-43,755
91.809,1264,-85,974
91.828,1450,-428,374
91.849,1078,-515,-286
91.868,957,-71,-997
91.888,872,509,-836
91.908,481,1427,93
91.928,340,1334,398
91.948,394,377,312
91.968,497,-325,799
91.988,920,-4082,3800
92.009,1881,-3174,-1170
92.029,1022,1265,449
92.049,858,2082,924
92.069,402,241,-79
92.088,712,125,-294
92.109,1163,-908,622
92.128,839,-766,627
92.149,888,-145,288
92.168,1172,69,251
92.188,981,-7,310
92.208,818,36,418
92.228,846,-7,446
92.248,853,-206,331
92.268,959,-230,157
92.287,1100,-341,119
92.308,956,-481,82
92.327,791,-360,139
92.348,854,-360,102
92.367,931,-314,67
92.387,895,-249,155
92.407,863,-310,168
92.427,905,-480,148
92.447,925,-420,143
92.467,882,-291,180
92.487,881,-211,262
92.507,918,-191,289
92.527,964,-312,263
92.547,938,-448,222
92.567,857,-328,233
92.586,880,-318,262
92.607,962,-358,244
92.626,935,-317,263
92.647,887,-273,258
92.666,882,-312,261
92.686,923,-268,236
92.706,933,-246,205
92.726,890,-166,251
92.746,907,-105,292
92.766,941,-141,195
92.785,931,-199,200
92.806,907,-188,178
92.825,909,-123,130
92.846,898,-133,246
92.865,889,-338,260
92.885,878,-358,257
92.905,891,-301,357
92.925,911,-412,327
92.945,899,-413,268
92.965,885,-314,311
92.984,883,-261,302
93.006,899,-311,241
93.026,881,-344,242
93.046,863,-326,268
93.066,884,-306,268
93.086,894,-315,301
93.106,885,-341,316
93.125,878,-378,304
93.146,883,-332,262
93.165,876,-280,253
93.186,876,-262,254
93.205,883,-282,255
93.225,886,-328,270
93.245,884,-322,277
93.265,896,-300,278
93.285,892,-267,295
93.305,873,-285,288
93.325,874,-309,277
93.345,876,-320,268
93.365,876,-302,279
93.385,883,-328,270
93.405,886,-291,319
93.424,876,-267,343
93.445,876,-289,301
93.464,873,-304,296
93.485,877,-298,303
93.504,882,-304,289
93.524,879,-302,293
93.544,883,-319,292
93.564,868,-313,288
93.584,867,-307,303
93.604,875,-315,295
93.623,879,-325,295
93.644,879,-338,282
93.663,876,-328,304
93.684,877,-303,321
93.703,871,-317,258
93.723,872,-410,238
93.743,871,-358,262
93.763,858,-276,269
93.783,879,-345,250
93.803,873,-322,318
93.822,857,-322,261
93.843,871,-328,265
93.862,873,-335,264
93.883,876,-327,272
93.902,878,-309,290
93.922,871,-313,278
93.942,877,-308,279
93.962,883,-313,295
93.982,876,-330,282
94.003,870,-319,282
94.023,861,-315,278
94.043,872,-329,268
94.063,878,-309,286
94.083,877,-320,285
94.103,880,-332,272
94.122,878,-312,288
94.143,874,-327,277
94.162,881,-317,266
94.183,875,-319,274
94.203,878,-327,284
94.222,872,-342,272
94.243,872,-312,280
94.262,878,-312,275
94.283,875,-325,288
94.302,876,-308,291
94.322,888,-334,272
94.342,873,-291,299
94.362,872,-292,294
94.382,880,-349,275
94.402,876,-331,284
94.421,870,-314,273
94.442,876,-316,269
94.461,872,-322,269
94.482,877,-334,267
94.501,877,-321,283
94.521,864,-349,265
94.541,872,-318,278
94.561,877,-304,291
94.581,876,-359,267
94.601,874,-326,267
94.620,868,-308,276
94.641,880,-340,248
94.660,884,-314,278
94.681,864,-338,282
94.700,872,-359,258
94.720,881,-321,273
94.740,870,-320,282
94.760,874,-355,253
94.780,875,-313,266
94.800,865,-329,279
94.819,877,-347,264
94.840,875,-342,282
94.859,871,-340,274
94.880,868,-336,267
94.899,871,-339,272
94.919,881,-328,269
94.939,875,-334,261
94.959,866,-343,271
94.979,869,-330,267
95.000,869,-340,261
95.020,871,-335,265
95.040,869,-326,266
95.060,879,-324,281
95.080,877,-339,271
95.100,868,-335,273
95.120,875,-316,274
95.140,875,-328,270
95.160,872,-319,285
95.179,874,-337,289
95.200,881,-336,270
95.219,871,-322,280
95.240,867,-325,269
95.259,877,-314,271
95.279,883,-315,292
95.299,886,-340,303
95.319,883,-335,271
95.339,870,-295,307
95.359,876,-334,209
95.378,876,-350,233
95.399,866,-301,318
95.418,874,-336,205
95.439,879,-357,231
95.458,870,-319,264
95.478,872,-320,261
95.498,889,-350,259
95.518,881,-335,277
95.538,873,-317,250
95.558,880,-294,266
95.577,880,-309,279
95.598,889,-339,316
95.617,888,-300,311
95.638,887,-344,219
95.657,877,-320,253
95.677,879,-290,302
95.697,884,-315,254
95.717,885,-311,262
95.737,881,-318,307
95.757,894,-355,252
95.776,880,-318,288
95.797,883,-298,267
95.816,884,-339,227
95.837,873,-362,225
95.856,861,-291,266
95.876,872,-297,252
95.896,891,-349,252
95.916,880,-354,265
95.936,873,-327,271
95.956,891,-328,249
95.976,891,-287,285
95.998,873,-328,249
96.017,875,-327,254
96.038,889,-326,275
96.057,886,-319,288
96.078,881,-313,287
96.097,874,-296,293
96.117,877,-314,285
96.137,885,-370,262
96.157,880,-291,302
96.177,886,-291,264
96.197,886,-321,235
96.216,878,-320,267
96.237,883,-320,231
96.256,892,-286,249
96.277,885,-292,260
96.296,897,-329,248
96.316,893,-358,240
96.336,867,-340,264
96.356,875,-289,263
96.376,898,-241,261
96.396,904,-374,199
96.415,890,-378,270
96.436,889,-314,276
96.455,890,-371,263
96.476,863,-384,259
96.495,825,-320,231
96.515,841,-339,260
96.535,837,-406,192
96.555,814,-404,203
96.575,859,-442,130
96.595,889,-362,184
96.614,962,-249,348
96.635,1019,-204,502
96.654,851,-680,210
96.675,765,-359,242
96.694,872,-162,411
96.714,910,-306,303
96.734,866,-297,291
96.754,832,-184,259
96.774,909,-472,186
96.794,869,-361,209
96.813,860,-353,262
96.834,898,-497,134
96.854,830,-377,186
96.874,861,-250,290
96.894,915,-129,316
96.913,957,-315,317
96.934,887,-425,254
96.953,819,-289,312
96.974,849,-227,369
96.993,924,-257,294
97.014,944,-174,321
97.035,977,-111,395
97.054,844,-281,589
97.075,839,-353,437
97.094,914,-562,270
97.114,908,-384,202
97.134,707,219,324
97.154,429,-505,732
97.174,685,-993,321
97.194,764,-186,-78
97.213,1017,515,245
97.234,1245,-55,-27
97.253,1193,-1293,230
97.274,816,-499,7
97.293,734,-257,118
97.313,849,-294,-39
97.333,806,-157,100
97.353,908,-36,318
97.373,896,-219,396
97.393,926,-491,419
97.412,906,-320,446
97.433,833,-177,443
97.452,830,-274,233
97.473,783,-386,362
97.492,819,-624,420
97.512,864,-590,485
97.532,849,-329,617
97.552,848,-365,472
97.572,820,-341,422
97.592,826,-270,540
97.611,833,-319,471
97.632,851,-343,374
97.651,825,-338,510
97.672,853,-452,393
97.691,831,-447,253
97.711,800,-366,412
97.732,852,-311,379
97.751,892,-433,188
97.772,857,-291,272
97.791,847,-245,318
97.811,884,-323,266
97.831,900,-373,244
97.851,880,-309,299
97.871,871,-254,318
97.891,869,-285,190
97.910,917,-321,71
97.931,917,-262,138
97.950,889,-206,172
97.971,906,-337,78
97.990,897,-362,-18
98.011,893,-321,71
98.032,930,-280,222
98.051,933,-365,266
98.072,984,-548,23
98.091,950,-381,-36
98.111,784,-326,-44
98.131,890,-605,-215
98.151,945,-612,-101
98.171,1095,-552,-37
98.191,1203,-444,1
98.210,1160,-267,84
98.231,1214,-105,-29
98.250,1213,54,7
98.271,1028,201,18
98.290,968,64,-126
98.310,1010,-261,-225
98.330,893,-224,166
98.350,767,264,189
98.370,678,78,100
98.390,746,-437,111
98.409,907,-841,60
98.430,907,-846,-100
98.449,823,-548,-45
98.470,765,-216,52
98.489,757,-130,-39
98.509,742,-395,-61
98.529,796,-788,-77
98.549,861,-976,-162
98.569,847,-723,-149
98.589,819,-380,-92
98.609,853,-131,-117
98.629,846,-158,-90
98.649,902,-579,35
98.669,1017,-503,-195
98.689,895,-471,-210
98.708,878,-509,-216
98.729,950,-442,-117
98.748,938,-346,-74
98.769,936,-331,-60
98.788,912,-379,-68
98.808,865,-460,-84
98.828,820,-525,-94
98.848,794,-542,-77
98.868,782,-520,-4
98.888,780,-466,43
98.908,779,-438,72
98.928,804,-456,26
98.947,824,-466,32
98.968,831,-410,63
98.987,868,-465,93
99.009,874,-523,65
99.029,828,-471,67
99.048,794,-461,25
99.069,795,-515,30
99.088,823,-611,36
99.109,833,-572,12
99.128,805,-521,-4
99.148,816,-498,13
99.168,869,-510,-6
99.188,913,-513,-54
99.208,918,-474,0
99.228,938,-409,-82
99.247,806,-584,233
99.268,819,-607,-80
99.287,830,-551,29
99.308,851,-466,97
99.327,793,-494,37
99.347,728,-681,-3
99.367,884,-509,23
99.387,860,-533,19
99.407,866,-535,23
99.427,854,-495,34
99.447,820,-455,14
99.467,794,-543,-9
99.487,793,-548,-37
99.507,825,-496,2
99.527,857,-509,-27
99.546,834,-534,-58
99.567,850,-549,-38
99.586,739,-544,-92
99.607,808,-490,-104
99.626,839,-509,-7
99.646,911,-533,-32
99.666,836,-690,-51
99.686,795,-574,2
99.706,840,-490,36
99.726,886,-456,46
99.745,876,-486,20
99.766,827,-487,-18
99.785,835,-493,-16
99.806,846,-517,-14
99.825,847,-513,-43
99.846,856,-506,-68
99.865,848,-501,-65
99.885,812,-490,-48
99.905,843,-508,-23
99.925,842,-521,-26
99.945,878,-508,-8
99.965,867,-493,8
99.984,831,-497,10
100.006,802,-510,12
100.026,792,-493,13
100.046,829,-507,-1
100.066,854,-517,-7
100.085,817,-465,2
100.106,833,-479,-16
100.125,795,-492,-8
100.146,801,-553,-17
100.165,885,-568,-3
100.185,902,-554,-14
100.205,856,-561,-27
100.225,821,-532,-9
100.245,819,-513,13
100.265,825,-517,11
100.284,824,-519,13
100.305,817,-526,5
100.325,809,-511,-4
100.345,817,-511,0
100.365,843,-527,-19
100.384,879,-533,-20
100.405,884,-514,-12
100.424,845,-507,-15
100.445,804,-507,-22
100.464,820,-496,-27
100.484,886,-482,-3
100.504,872,-490,3
100.524,818,-490,3
100.544,827,-487,7
100.564,847,-474,8
100.583,884,-488,16
100.604,870,-510,9
100.623,846,-519,9
100.644,830,-507,13
100.663,845,-501,12
100.683,867,-496,5
100.703,863,-502,0
100.723,840,-510,3
100.743,823,-504,-11
100.763,851,-495,-31
100.782,882,-503,-15
100.803,851,-505,-7
100.822,835,-515,-18
100.843,843,-496,-24
100.862,851,-508,-12
100.882,846,-515,-4
100.902,852,-515,-4
100.922,868,-509,-5
100.942,889,-498,12
100.962,872,-493,19
100.981,848,-508,17
101.003,837,-501,31
101.023,818,-486,57
; 101 stopping logging: shutdown: switched off
