;Title, http://www.gcdataconcepts.com, X16-2 ADXL345
;Version, 1447, Build num, 0x276, Build date, 20120709 17:23:15,  SN:CCDC20160000714
;Start_time, 2012-12-19, 13:15:39.001
;Temperature, 19.50, deg C,  Vbat, 4075, mv
;Gain, 16g
;SampleRate, 400,Hz
;Deadband, 0, counts
;DeadbandTimeout, 0,sec
;Headers, time,Ax,Ay,Az
1.257,2990,-1252,-870
1.260,2870,-1176,-754
1.262,2750,-1078,-634
1.265,2644,-978,-496
1.267,2554,-824,-352
1.270,2466,-632,-180
1.273,2416,-414,20
1.275,2376,-154,208
1.278,2342,118,334
1.280,2344,386,414
1.283,2308,652,394
1.284,2276,868,334
1.287,2218,1084,206
1.289,2140,1250,34
1.292,2058,1374,-126
1.295,1964,1436,-280
1.297,1890,1434,-416
1.300,1798,1368,-514
1.302,1742,1268,-566
1.305,1670,1138,-570
1.307,1612,984,-532
1.310,1586,824,-488
1.312,1558,686,-436
1.315,1536,582,-408
1.317,1500,524,-370
1.320,1456,510,-334
1.323,1402,518,-318
1.325,1350,534,-294
1.327,1298,550,-262
1.329,1278,586,-236
1.332,1274,612,-186
1.334,1296,662,-132
1.337,1328,682,-68
1.339,1396,716,0
1.342,1492,738,76
1.344,1596,754,138
1.347,1716,768,180
1.350,1868,774,238
1.352,2024,774,282
1.355,2180,774,318
1.357,2294,738,368
1.360,2320,644,370
1.362,2246,490,306
1.365,2078,300,216
1.366,1852,68,108
1.369,1622,-172,22
1.372,1430,-380,-18
1.374,1280,-596,-6
1.377,1146,-768,30
1.379,1026,-854,112
1.382,898,-802,236
1.384,794,-704,362
1.387,692,-578,480
1.389,556,-514,500
1.392,386,-522,442
1.394,206,-560,358
1.397,62,-608,308
1.400,-36,-660,280
1.402,-126,-740,270
1.405,-192,-806,286
1.406,-246,-882,320
1.409,-286,-930,326
1.411,-306,-960,326
1.414,-336,-1004,330
1.416,-336,-1016,326
1.419,-356,-1018,332
1.422,-380,-986,370
1.424,-390,-922,422
1.427,-404,-850,480
1.429,-386,-778,508
1.432,-350,-708,502
1.434,-302,-658,490
1.437,-236,-626,468
1.439,-184,-602,434
1.442,-102,-570,378
1.444,-32,-532,308
1.447,32,-498,258
1.449,118,-452,198
1.451,176,-408,152
1.454,252,-368,132
1.456,324,-350,130
1.459,420,-332,176
1.461,508,-322,206
1.464,592,-336,230
1.466,688,-364,248
1.469,780,-408,240
1.472,884,-460,206
1.474,958,-522,166
1.477,1018,-580,126
1.479,1076,-642,76
1.482,1102,-706,74
1.484,1114,-762,68
1.487,1086,-812,84
1.488,1068,-902,122
1.491,1038,-980,146
1.493,990,-1054,168
1.496,932,-1090,206
1.499,882,-1094,244
1.501,808,-1082,250
1.504,746,-1042,250
1.506,664,-1014,280
1.509,578,-960,322
1.511,502,-898,296
1.514,438,-854,216
1.516,392,-878,182
1.519,356,-992,202
1.522,368,-1102,228
1.524,402,-1246,276
1.527,486,-1412,362
1.528,616,-1556,458
1.531,750,-1602,506
1.533,920,-1614,536
1.536,1096,-1608,492
1.538,1278,-1670,480
1.541,1454,-1766,516
1.543,1590,-1910,562
1.546,1724,-2084,646
1.549,1826,-2292,750
1.551,1950,-2504,872
1.554,2088,-2710,990
1.556,2272,-2892,1062
1.559,2498,-3044,1242
1.561,2732,-3238,1360
1.564,2908,-3494,1532
1.566,2998,-3792,1650
1.569,2980,-4078,1632
1.571,2886,-4260,1440
1.573,2714,-4264,1054
1.576,2478,-4108,602
1.578,2192,-3814,164
1.581,1864,-3388,-168
1.583,1536,-2928,-246
1.586,1246,-2686,-86
1.588,1060,-2778,208
1.591,994,-3124,498
1.593,1028,-3506,778
1.596,1138,-3796,998
1.599,1262,-4040,1076
1.601,1306,-4218,1018
1.604,1204,-4262,808
1.606,954,-4174,622
1.609,624,-4004,498
1.610,304,-3774,446
1.613,68,-3492,460
1.615,-128,-3194,526
1.618,-294,-2852,628
1.621,-444,-2492,712
1.623,-570,-2184,726
1.626,-646,-1918,676
1.628,-682,-1756,574
1.631,-650,-1668,506
1.633,-576,-1640,476
1.636,-466,-1670,484
1.638,-326,-1720,514
1.641,-194,-1790,512
1.643,-56,-1876,466
1.646,56,-1946,382
1.649,176,-2028,284
1.650,264,-2078,162
1.653,442,-2120,164
1.655,710,-1688,462
1.658,638,-1576,758
1.660,434,-1734,1132
1.663,420,-1436,1318
1.665,622,-1004,1334
1.668,990,-744,1022
1.671,1532,-488,436
1.673,2204,-294,-298
1.676,3074,-190,-914
1.678,4882,76,-1366
1.681,7904,632,-1126
1.683,10902,940,78
1.686,11328,-1086,358
1.688,7030,-2382,1330
1.691,3202,-3772,3622
1.692,1622,-4754,5032
1.695,1124,-2750,4256
1.698,674,-584,2760
1.700,24,-1198,888
1.703,-1204,-3002,-586
1.705,-2496,-4228,-2176
1.708,-2974,-6100,-2814
1.710,-2500,-6920,-1546
1.713,-2622,-5878,-1424
1.715,-3932,-3920,-1324
1.718,-4056,-2708,-1600
1.720,-2750,-2224,-1092
1.723,-1526,-1524,74
1.726,-932,-986,964
1.728,-644,-1088,1476
1.731,-466,-1456,1514
1.732,-236,-1712,1184
1.735,152,-1714,648
1.737,544,-1452,308
1.740,850,-1302,522
1.742,1094,-1322,852
1.745,1286,-1442,1018
1.748,1430,-1564,1130
1.750,1616,-1690,1198
1.753,1874,-1770,1152
1.755,2176,-1704,918
1.758,2460,-1612,686
1.760,2708,-1628,630
1.763,2830,-1710,650
1.765,2698,-1716,790
1.768,2364,-1644,980
1.770,1980,-1554,1128
1.772,1668,-1468,1180
1.775,1460,-1400,1106
1.777,1340,-1300,1078
1.780,1286,-1214,1076
1.782,1322,-1192,1130
1.785,1404,-1262,1128
1.787,1538,-1374,1082
1.790,1786,-1494,1032
1.792,2120,-1566,962
1.795,2616,-1550,882
1.798,3232,-1504,834
1.800,3924,-1474,730
1.803,4542,-1452,484
1.805,4894,-1344,140
1.808,4912,-1090,-14
1.810,4696,-728,-18
1.813,4386,-440,38
1.814,4112,-300,50
1.817,3918,-264,10
1.820,3840,-220,-36
1.822,3820,-156,-72
1.825,3844,-120,-96
1.827,3890,-74,-170
1.830,3916,-12,-278
1.832,3918,110,-396
1.835,3830,294,-496
1.837,3678,436,-512
1.840,3482,572,-528
1.842,3290,646,-532
1.845,3134,710,-548
1.848,3014,756,-614
1.850,2892,828,-648
1.853,2740,888,-652
1.854,2632,920,-640
1.857,2604,980,-616
1.859,2614,1116,-632
1.862,2600,1334,-548
1.864,2538,1614,-410
1.867,2428,1808,-206
1.870,2310,1998,20
1.872,2204,2126,206
1.875,2096,2196,374
1.877,2006,2244,490
1.880,1926,2282,564
1.882,1864,2324,636
1.885,1814,2392,640
1.887,1792,2500,628
1.890,1748,2582,642
1.892,1726,2724,654
1.894,1710,2840,640
1.897,1614,2980,578
1.899,1446,3138,594
1.902,1152,3326,566
1.904,886,3448,412
1.907,876,3162,58
1.909,918,2650,-102
1.912,880,2162,132
1.914,896,1706,390
1.917,980,1282,578
1.920,1080,922,704
1.922,1192,608,822
1.925,1308,388,910
1.927,1442,232,880
1.930,1618,160,794
1.932,1796,98,628
1.935,2006,50,450
1.936,2222,14,218
1.939,2430,-20,-44
1.941,2622,-62,-326
1.944,2776,-146,-584
1.947,2866,-312,-794
1.949,2838,-504,-886
1.952,2728,-614,-860
1.954,2574,-640,-762
1.957,2420,-644,-670
1.959,2308,-614,-552
1.962,2192,-548,-444
1.964,2094,-456,-324
1.967,2034,-330,-210
1.970,1986,-198,-120
1.972,1974,-34,-46
1.975,1972,114,38
1.976,1992,274,90
1.979,2016,444,94
1.981,2032,600,72
1.984,2046,746,68
1.986,2056,882,26
1.989,2062,1024,-6
1.991,2046,1136,-30
1.994,2004,1208,-98
1.998,1940,1248,-166
2.000,1856,1236,-230
2.003,1772,1190,-268
2.005,1648,1112,-282
2.008,1538,1034,-256
2.010,1422,978,-220
2.013,1302,924,-186
2.015,1214,902,-142
2.018,1118,882,-114
2.020,1070,900,-92
2.023,1034,912,-66
2.026,1026,924,-46
2.028,1034,928,-26
2.031,1050,920,14
2.033,1110,910,30
2.036,1174,890,68
2.038,1258,854,128
2.040,1364,802,206
2.042,1486,750,248
2.045,1602,694,328
2.047,1698,606,360
2.050,1794,520,396
2.053,1820,408,390
2.055,1830,282,392
2.058,1782,148,370
2.060,1686,-26,362
2.063,1570,-202,326
2.065,1448,-382,288
2.068,1322,-548,264
2.070,1204,-722,234
2.073,1096,-890,176
2.076,1018,-1030,202
2.078,932,-1148,280
2.081,838,-1188,410
2.082,732,-1176,520
2.085,638,-1120,686
2.087,522,-1030,766
2.090,376,-988,784
2.092,210,-956,722
2.095,38,-970,576
2.097,-78,-992,462
2.100,-192,-1012,350
2.103,-268,-1038,294
2.105,-326,-1070,274
2.108,-384,-1084,256
2.110,-412,-1086,276
2.113,-444,-1080,272
2.115,-444,-1070,318
2.118,-444,-1042,334
2.120,-438,-1004,342
2.122,-444,-938,356
2.125,-444,-854,372
2.127,-436,-746,390
2.130,-414,-646,380
2.132,-372,-554,358
2.135,-314,-488,362
2.137,-248,-422,336
2.140,-172,-382,310
2.142,-96,-342,270
2.145,-28,-336,242
2.147,46,-320,244
2.150,110,-312,226
2.153,188,-300,218
2.155,246,-312,204
2.158,292,-322,236
2.160,344,-340,226
2.162,404,-346,290
2.164,452,-350,336
2.167,498,-366,376
2.169,552,-420,386
2.172,620,-480,372
2.174,680,-532,296
2.177,744,-590,230
2.180,776,-610,94
2.182,778,-620,-28
2.185,758,-626,-114
2.381,6014,-498,334
2.384,2962,-1722,2940
2.386,1380,-3438,4894
2.389,996,-2576,4888
2.391,776,-556,3298
2.394,-18,6,1622
2.396,-1022,-1386,358
2.399,-1918,-2980,-484
2.402,-2738,-3818,-1076
2.404,-3340,-4708,-630
2.406,-3858,-4364,800
2.408,-4950,-2916,-398
2.411,-5020,-1938,-2708
2.413,-3898,-1798,-2972
2.416,-2544,-1968,-1208
2.418,-1668,-2216,652
2.421,-1184,-2356,1560
2.423,-662,-2500,1740
2.426,-18,-2496,1402
2.429,490,-2280,982
2.431,770,-2028,802
2.434,920,-1858,630
2.436,1018,-1780,674
2.439,1162,-1848,1000
2.441,1404,-1946,1230
2.444,1714,-2062,1276
2.446,2068,-2220,1202
2.448,2454,-2274,978
2.451,2834,-2242,784
2.453,3172,-2162,646
2.456,3216,-2054,540
2.458,2870,-1954,616
2.461,2374,-1810,786
2.463,1916,-1666,884
2.466,1594,-1558,890
2.468,1426,-1426,832
2.471,1380,-1308,830
2.473,1460,-1276,884
2.476,1676,-1340,912
2.479,2060,-1358,928
2.481,2536,-1300,902
2.484,3106,-1254,824
2.486,3700,-1200,708
2.488,4186,-1178,468
2.490,4406,-1120,282
2.493,4340,-1000,236
2.495,4130,-850,256
2.498,3932,-624,250
2.500,3800,-440,208
2.503,3722,-314,102
2.506,3690,-262,-4
2.508,3668,-258,-98
2.511,3652,-254,-126
2.513,3640,-264,-130
2.516,3706,-284,-166
2.518,3788,-246,-268
2.521,3828,-158,-346
2.523,3796,-22,-466
2.526,3662,106,-550
2.528,3502,198,-584
2.530,3324,226,-568
2.533,3174,242,-568
2.535,3054,250,-572
2.538,2932,270,-626
2.540,2792,302,-702
2.543,2624,340,-752
2.545,2464,342,-694
2.548,2350,320,-602
2.550,2306,420,-528
2.553,2248,620,-392
2.556,2202,876,-218
2.558,2172,1158,-60
2.561,2138,1476,142
2.563,2146,1768,362
2.566,2182,2038,532
2.568,2264,2310,612
2.570,2348,2570,656
2.572,2392,2836,686
2.575,2392,3088,718
2.578,2342,3274,684
2.580,2248,3388,592
2.583,2082,3426,508
2.585,1874,3362,578
2.588,1662,3178,806
2.590,1424,3066,964
2.593,1108,3036,1026
2.595,696,3038,940
2.598,552,2978,666
2.600,728,2634,320
2.603,826,2032,234
2.606,876,1406,438
2.608,944,904,568
2.610,1018,564,652
2.612,1104,292,792
2.615,1202,-6,982
2.617,1354,-290,1118
2.620,1568,-530,1112
2.622,1840,-704,1004
2.625,2148,-814,806
2.628,2472,-918,566
2.630,2790,-992,242
2.633,3080,-1038,-128
2.635,3298,-1090,-534
2.638,3386,-1140,-870
2.640,3308,-1098,-964
2.643,3166,-986,-894
2.645,3046,-846,-758
2.648,2958,-680,-578
2.650,2888,-504,-406
2.652,2860,-346,-200
2.655,2838,-164,-8
2.657,2844,48,112
2.660,2846,256,228
2.662,2828,462,266
2.665,2790,662,290
2.667,2730,852,256
2.670,2652,1020,180
2.672,2558,1162,74
2.675,2432,1256,-44
2.678,2324,1282,-160
2.680,2204,1250,-266
2.683,2098,1156,-320
2.685,2006,1038,-328
2.688,1914,938,-324
2.690,1820,848,-320
2.692,1740,766,-314
2.694,1652,696,-294
2.697,1578,658,-298
2.699,1502,628,-316
2.702,1430,616,-328
2.705,1350,586,-358
2.707,1280,554,-366
2.710,1246,534,-348
2.712,1206,506,-320
2.715,1206,488,-266
2.717,1212,460,-188
2.720,1258,438,-116
2.722,1314,416,-30
2.725,1394,382,48
2.728,1490,382,124
2.730,1602,358,194
2.732,1710,342,246
2.734,1792,330,298
2.737,1852,294,364
2.739,1864,274,396
2.742,1830,222,396
2.744,1760,158,398
2.747,1624,66,356
2.749,1490,-28,286
2.752,1354,-142,240
2.755,1232,-268,162
2.757,1108,-380,134
2.760,990,-512,134
2.762,882,-632,192
2.765,772,-742,288
2.767,652,-822,410
2.770,496,-892,480
2.772,252,-972,488
2.774,0,-1032,498
2.777,-216,-1062,498
2.779,-384,-1048,486
2.782,-520,-984,470
2.784,-656,-904,432
2.787,-762,-826,378
2.789,-864,-798,344
2.792,-922,-790,316
2.794,-960,-808,354
2.797,-978,-848,394
2.799,-966,-880,472
2.802,-952,-896,498
2.805,-918,-858,526
2.807,-908,-800,512
2.810,-902,-712,508
2.812,-868,-580,486
2.814,-836,-460,442
2.816,-782,-346,398
2.819,-726,-252,354
2.821,-638,-224,318
2.824,-550,-198,308
2.827,-470,-218,306
2.829,-372,-234,294
2.832,-278,-254,282
2.834,-200,-284,276
2.837,-114,-308,256
2.839,-34,-344,244
2.842,30,-366,230
2.844,88,-396,200
2.847,148,-424,210
2.849,196,-444,232
2.852,238,-434,226
2.854,278,-420,250
2.856,308,-406,260
2.859,356,-386,282
2.861,396,-360,278
2.864,420,-332,274
2.866,474,-286,260
2.869,502,-316,192
2.871,538,-366,88
2.874,542,-406,-20
2.877,532,-422,-134
2.879,504,-400,-242
2.882,450,-412,-330
2.884,414,-454,-326
2.887,390,-480,-274
2.889,378,-524,-166
2.892,362,-502,-76
2.894,348,-480,-4
2.896,358,-386,48
2.898,354,-330,88
2.901,386,-280,64
2.904,418,-312,40
2.906,494,-364,18
2.909,592,-422,38
2.911,694,-530,68
2.914,832,-682,138
2.916,972,-866,198
2.919,1130,-1068,236
2.921,1310,-1262,254
2.924,1492,-1484,236
2.927,1680,-1712,212
2.929,1872,-1934,232
2.932,2064,-2182,294
2.934,2242,-2360,432
2.936,2378,-2416,554
2.938,2476,-2354,762
2.941,2554,-2300,996
2.943,2666,-2386,1230
2.946,2826,-2558,1402
2.948,2976,-2794,1644
2.951,3128,-3080,1820
2.954,3262,-3426,1862
2.956,3330,-3794,1866
2.959,3330,-4140,1796
2.961,3210,-4350,1564
2.964,3012,-4302,1126
2.966,2700,-4078,534
2.969,2324,-3764,-84
2.971,1886,-3362,-572
2.974,1458,-2910,-810
2.976,1126,-2448,-646
2.978,896,-2218,-90
2.981,778,-2180,528
2.983,720,-2324,878
2.986,708,-2600,1070
2.988,786,-2942,1160
2.991,916,-3312,1092
2.993,1026,-3696,1020
2.998,1076,-4014,1042
3.000,1094,-4178,1138
3.002,964,-4144,1270
3.005,658,-3906,1358
3.007,246,-3510,1260
3.010,-202,-3084,994
3.012,-572,-2704,662
3.015,-866,-2414,322
3.017,-1028,-2186,48
3.020,-1074,-2042,-56
3.022,-1010,-2004,-6
3.025,-856,-2062,192
3.027,-646,-2182,438
3.030,-408,-2354,684
3.033,-156,-2544,840
3.035,68,-2710,832
3.038,358,-2822,726
3.040,788,-2530,828
3.042,956,-2024,948
3.044,886,-2146,780
3.047,772,-2524,604
3.049,844,-2552,430
3.052,1214,-2686,500
3.054,2136,-2830,418
3.057,3334,-2478,-56
3.060,4484,-1684,-598
3.062,5572,-1092,-766
3.065,6576,-702,-644
3.067,7432,-314,-520
3.070,7872,-116,-636
3.072,7444,-222,-790
3.075,5858,-2,-534
3.077,3740,74,516
3.080,2144,-890,2292
3.082,1332,-1454,3072
3.084,936,-1164,2636
3.087,352,-908,1900
3.089,-588,-1284,1294
3.092,-1586,-3050,734
3.094,-2282,-4766,-394
3.097,-2568,-5470,-1004
3.099,-2838,-4614,734
3.102,-4076,-2978,560
3.104,-5188,-2170,-842
3.107,-4874,-1854,-1992
3.110,-3550,-1644,-1510
3.112,-2236,-1736,-50
3.115,-1450,-2138,1278
3.117,-952,-2580,1874
3.120,-460,-2802,1700
3.122,58,-2664,1224
3.124,498,-2344,956
3.126,770,-2116,660
3.129,934,-1954,446
3.132,1050,-1852,692
3.134,1268,-1858,1076
3.137,1576,-1988,1304
3.139,1950,-2238,1260
3.142,2358,-2458,980
3.144,2770,-2526,718
3.147,3234,-2416,674
3.149,3524,-2222,636
3.152,3340,-2010,638
3.154,2774,-1792,708
3.157,2168,-1594,806
3.160,1698,-1470,860
3.162,1424,-1348,824
3.164,1308,-1218,786
3.166,1292,-1114,832
3.169,1380,-1110,936
3.171,1538,-1186,1016
3.174,1782,-1314,1002
3.176,2180,-1386,874
3.179,2710,-1354,744
3.182,3338,-1318,654
3.184,3964,-1326,452
3.187,4432,-1330,86
3.189,4596,-1266,-152
3.192,4500,-1076,-196
3.194,4252,-810,-176
3.197,4008,-582,-194
3.199,3818,-468,-218
3.202,3752,-432,-264
3.203,3758,-408,-298
3.206,3808,-376,-274
3.209,3878,-358,-306
3.211,3970,-346,-418
3.214,4080,-258,-552
3.216,4086,-116,-636
3.219,3988,12,-654
3.221,3850,128,-682
3.224,3696,220,-714
3.226,3548,240,-696
3.229,3380,268,-694
3.232,3246,304,-704
3.234,3092,364,-756
3.237,2906,462,-790
3.239,2710,538,-776
3.242,2578,564,-714
3.244,2540,662,-676
3.246,2472,890,-570
3.248,2390,1174,-374
3.251,2290,1446,-114
3.253,2192,1706,102
3.256,2118,1956,320
3.259,2042,2158,574
3.261,2004,2328,828
3.264,2022,2506,1034
3.266,2066,2682,1102
3.269,2122,2950,1126
3.271,2168,3262,1096
3.274,2178,3574,968
3.276,2112,3802,780
3.279,1972,3932,618
3.282,1744,3858,664
3.284,1422,3750,786
3.286,1044,3642,904
3.288,690,3494,818
3.291,690,3088,510
3.293,774,2486,248
3.296,784,1888,318
3.298,818,1352,492
3.301,860,958,598
3.303,898,662,738
3.306,962,420,876
3.309,1052,208,948
3.311,1216,52,944
3.314,1414,-22,864
3.316,1644,-48,706
3.319,1876,-20,496
3.321,2130,6,222
3.324,2376,74,-110
3.325,2560,150,-440
3.328,2698,160,-748
3.331,2746,116,-964
3.333,2688,38,-1046
3.336,2558,4,-986
3.338,2392,0,-862
3.341,2264,-12,-730
3.343,2168,-36,-592
3.346,2108,-76,-466
3.348,2062,-64,-344
3.351,2046,-34,-230
3.353,2040,28,-116
3.356,2048,88,-6
3.359,2074,180,98
3.361,2106,264,150
3.364,2138,334,202
3.366,2182,426,230
3.368,2184,516,236
3.370,2198,608,232
3.373,2188,688,218
3.375,2164,770,194
3.378,2130,828,174
3.381,2054,858,124
3.383,1986,872,102
3.386,1890,866,80
3.388,1794,852,74
3.391,1688,822,82
3.393,1582,794,96
3.396,1500,778,92
3.398,1428,778,108
3.401,1370,772,106
3.403,1326,784,120
3.406,1294,790,120
3.408,1290,814,106
3.410,1302,822,94
3.413,1328,806,80
3.415,1380,786,74
3.418,1432,762,72
3.420,1524,728,114
3.423,1602,692,156
3.425,1718,654,204
3.428,1826,602,256
3.431,1916,544,310
3.433,1986,506,332
3.436,1988,422,366
3.438,1938,332,382
3.441,1828,206,376
3.443,1674,44,360
3.446,1512,-106,324
3.447,1340,-308,274
3.450,1206,-500,224
3.452,1098,-658,140
3.455,988,-844,108
3.458,902,-1016,106
3.460,802,-1232,174
3.463,722,-1388,300
3.465,622,-1468,452
3.468,536,-1498,590
3.470,470,-1416,706
3.473,336,-1284,700
3.475,194,-1136,632
3.478,26,-1044,496
3.480,-96,-998,316
3.483,-202,-976,196
3.486,-272,-966,110
3.488,-334,-960,100
3.490,-390,-970,114
3.492,-430,-956,152
3.495,-474,-942,210
3.497,-512,-946,252
3.500,-516,-924,290
3.502,-520,-882,322
3.505,-528,-818,350
3.508,-554,-714,362
3.510,-588,-586,394
3.513,-622,-448,388
3.515,-648,-328,364
3.518,-622,-224,310
3.520,-602,-162,272
3.523,-542,-118,244
3.525,-472,-98,212
3.528,-378,-108,192
3.529,-276,-114,188
3.532,-198,-132,182
3.535,-84,-150,172
3.537,10,-178,150
3.540,102,-198,156
3.542,200,-204,164
3.545,282,-238,170
3.547,374,-258,202
3.550,468,-284,238
3.552,552,-296,236
3.555,636,-330,244
3.558,724,-330,240
3.560,790,-328,252
3.563,846,-332,236
3.565,880,-368,218
3.568,912,-358,174
3.569,920,-412,94
3.572,912,-496,26
3.574,882,-568,-38
3.577,848,-692,-50
3.579,818,-786,-28
3.582,796,-882,24
3.585,776,-938,108
3.587,774,-952,166
3.590,780,-938,266
3.592,786,-866,340
3.595,794,-780,412
3.597,808,-722,446
3.600,830,-656,368
3.602,848,-634,284
3.605,876,-664,208
3.608,934,-728,158
3.610,1016,-802,128
3.612,1120,-946,192
3.614,1260,-1102,260
3.617,1404,-1280,332
3.619,1586,-1448,406
3.622,1776,-1616,480
3.624,2012,-1810,530
3.627,2294,-2018,596
3.629,2568,-2274,638
3.632,2828,-2542,688
3.635,3012,-2884,754
3.637,3122,-3230,886
3.640,3168,-3554,1018
3.642,3098,-3824,1242
3.645,2916,-3984,1458
3.647,2650,-4114,1546
3.650,2378,-4166,1544
3.651,2132,-4160,1440
3.654,1940,-4152,1168
3.657,1802,-4130,820
3.659,1652,-4026,362
3.662,1516,-3704,-178
3.664,1356,-3180,-754
3.667,1188,-2510,-1094
3.669,1000,-1898,-994
3.672,890,-1728,-422
3.674,882,-2050,330
3.677,946,-2582,862
3.679,1086,-2994,1180
3.682,1318,-3246,1298
3.685,1538,-3542,1112
3.687,1580,-4016,850
3.690,1432,-4326,702
3.691,1252,-4388,690
3.694,966,-4256,740
3.696,570,-3884,802
3.699,132,-3406,768
3.701,-306,-2986,566
3.704,-672,-2628,332
3.707,-964,-2316,130
3.709,-1166,-2132,16
3.712,-1270,-2064,40
3.714,-1290,-2112,174
3.717,-1218,-2252,324
3.719,-1106,-2426,476
3.722,-924,-2608,614
3.724,-646,-2762,642
3.727,40,-2736,718
3.729,270,-2128,1078
3.732,276,-1940,1198
3.734,68,-2294,1264
3.736,-86,-2480,1336
3.739,52,-2542,1522
3.741,634,-2836,1732
3.744,1724,-2874,1404
3.746,3008,-2520,582
3.749,4644,-2050,-382
3.751,6784,-1612,-1204
3.754,8904,-1390,-1460
3.756,10152,-1586,-1318
3.759,9572,-1588,-1344
3.762,6936,-1014,-668
3.764,3998,-930,690
3.767,2016,-2826,2766
3.769,1192,-3788,4002
3.772,1018,-2438,3646
3.773,682,-1344,2350
3.776,-220,-1586,1200
3.778,-1466,-2676,46
3.781,-2476,-3864,-1292
3.784,-2812,-4852,-1202
3.786,-2812,-4222,270
3.789,-3854,-2576,254
3.791,-4600,-1450,-752
3.794,-4096,-1088,-1870
3.796,-2976,-1078,-1440
3.799,-1934,-1292,80
3.801,-1252,-1604,1434
3.804,-872,-1894,1948
3.806,-512,-2206,1798
3.809,-34,-2408,1232
3.812,382,-2336,582
3.813,666,-2104,332
3.816,916,-2004,384
3.818,1114,-1982,592
3.821,1270,-2014,932
3.823,1482,-2032,1128
3.826,1728,-2062,1064
3.828,1986,-2190,874
3.831,2270,-2288,632
3.834,2560,-2292,530
3.836,2828,-2276,586
3.839,2882,-2252,652
3.841,2652,-2164,772
3.844,2268,-1994,914
3.846,1894,-1844,1012
3.849,1606,-1700,1002
3.851,1442,-1558,892
3.854,1402,-1398,858
3.855,1442,-1352,838
3.858,1566,-1392,798
3.861,1796,-1490,804
3.863,2182,-1556,774
3.866,2718,-1532,764
3.868,3336,-1474,648
3.871,3972,-1414,448
3.873,4432,-1336,192
3.876,4572,-1182,36
3.878,4452,-940,66
3.881,4206,-680,182
3.884,4012,-460,208
3.886,3876,-324,140
3.889,3798,-268,-8
3.891,3746,-236,-120
3.894,3704,-218,-196
3.895,3710,-232,-214
3.898,3746,-242,-234
3.900,3810,-254,-270
3.903,3854,-178,-328
3.905,3826,-76,-388
3.908,3742,12,-446
3.911,3624,104,-472
3.913,3498,166,-472
3.916,3338,286,-454
3.918,3190,388,-460
3.921,3056,498,-504
3.923,2930,626,-622
3.926,2814,750,-678
3.928,2700,880,-634
3.931,2610,996,-494
3.934,2574,1184,-328
3.935,2490,1452,-62
3.938,2382,1676,282
3.940,2244,1870,486
3.943,2116,2004,610
3.945,2022,2134,636
3.948,1954,2270,602
3.950,1920,2404,566
3.953,1912,2566,524
3.955,1900,2730,542
3.958,1876,2882,612
3.961,1842,2956,638
3.963,1808,2998,632
3.966,1714,2952,678
3.968,1584,2898,794
3.971,1394,2830,918
3.973,1190,2750,862
3.976,1090,2488,586
3.977,1108,2030,278
3.980,1084,1556,166
3.983,998,1170,214
3.985,916,858,284
3.988,908,620,382
3.990,950,378,464
3.993,1060,150,516
3.995,1224,-58,510
4.000,1438,-218,448
4.001,1702,-336,336
4.004,1982,-428,178
4.006,2304,-484,-18
4.009,2590,-508,-264
4.012,2862,-540,-502
4.014,3072,-596,-716
4.017,3158,-648,-830
4.019,3134,-580,-778
4.022,3040,-494,-624
4.024,2942,-416,-438
4.027,2860,-328,-286
4.029,2802,-274,-156
4.032,2780,-170,-30
4.035,2770,-38,98
4.037,2776,126,190
4.040,2764,274,264
4.041,2758,426,318
4.044,2728,556,322
4.046,2678,710,280
4.049,2598,880,230
4.051,2494,1034,134
4.054,2380,1146,40
4.056,2258,1232,-68
4.059,2124,1254,-162
4.062,2032,1260,-224
4.064,1922,1224,-282
4.067,1832,1146,-314
4.069,1768,1060,-324
4.072,1710,970,-328
4.074,1672,892,-308
4.077,1632,836,-290
4.079,1606,810,-270
4.081,1572,812,-248
4.084,1538,832,-210
4.086,1498,862,-170
4.089,1444,884,-124
4.091,1410,904,-98
4.094,1372,922,-60
4.096,1356,944,-32
4.099,1352,946,-12
4.101,1356,942,4
4.104,1394,944,14
4.106,1432,946,32
4.109,1506,932,88
4.112,1562,922,122
4.114,1628,864,180
4.117,1712,812,194
4.119,1774,738,212
4.122,1828,660,228
4.123,1846,550,240
4.126,1826,446,228
4.128,1770,336,194
4.131,1686,200,184
4.134,1568,40,156
4.136,1448,-138,96
4.139,1330,-328,44
4.141,1246,-504,4
4.144,1164,-672,-26
4.146,1086,-810,-20
4.149,1006,-938,42
4.151,916,-1006,140
4.154,830,-986,272
4.156,752,-898,418
4.159,598,-818,508
4.162,360,-834,504
4.163,106,-894,462
4.166,-106,-934,390
4.168,-260,-978,318
4.171,-402,-1008,272
4.173,-534,-1034,232
4.176,-632,-1064,238
4.178,-736,-1100,230
4.181,-810,-1116,256
4.184,-870,-1124,278
4.186,-912,-1106,266
4.189,-942,-1090,284
4.191,-964,-1028,270
4.194,-954,-944,252
4.196,-956,-832,258
4.199,-928,-706,262
4.201,-874,-584,272
4.203,-804,-508,268
4.205,-702,-442,292
4.208,-604,-392,298
4.211,-494,-372,304
4.213,-384,-362,274
4.216,-280,-342,248
4.218,-182,-336,218
4.221,-100,-340,178
4.223,-16,-348,138
4.226,68,-342,108
4.228,142,-348,98
4.231,220,-334,114
4.234,280,-328,134
4.236,352,-318,136
4.239,426,-312,150
4.241,476,-304,148
4.244,526,-280,182
4.245,582,-252,164
4.248,650,-218,142
4.250,698,-212,116
4.253,756,-192,88
4.255,790,-166,38
4.258,822,-178,-26
4.261,840,-198,-122
4.263,848,-224,-246
4.266,854,-274,-298
4.268,850,-302,-334
4.271,844,-370,-312
4.273,850,-430,-234
4.276,838,-492,-152
4.278,840,-490,-18
4.281,822,-496,64
4.283,822,-486,168
4.285,818,-478,242
4.288,830,-476,218
4.290,858,-490,170
4.293,892,-532,64
4.295,962,-612,-10
4.298,1036,-734,-52
4.300,1150,-862,-84
4.303,1284,-1046,-86
4.305,1424,-1302,-50
4.308,1616,-1588,54
4.311,1840,-1894,194
4.313,2118,-2208,350
4.316,2386,-2450,460
4.318,2580,-2656,518
4.321,2676,-2804,568
4.323,2706,-2914,632
4.325,2682,-2958,760
4.327,2608,-2988,942
4.330,2550,-3076,1140
4.332,2488,-3224,1288
4.335,2432,-3358,1574
4.338,2416,-3482,1800
4.340,2386,-3566,1926
4.343,2354,-3702,1940
4.345,2332,-3872,1798
4.348,2274,-3998,1432
4.350,2174,-3888,802
4.353,2016,-3524,-24
4.355,1818,-3042,-794
4.358,1590,-2558,-1164
4.361,1348,-2374,-770
4.363,1184,-2644,128
4.366,1094,-3228,942
4.367,1088,-3768,1444
4.370,1292,-4080,1618
4.372,1636,-4508,1534
4.375,1788,-5144,1408
4.377,1734,-5426,1260
4.380,1450,-5398,1066
4.383,836,-5098,1010
4.385,192,-4576,1042
4.388,-342,-3960,932
4.390,-776,-3384,772
4.393,-1118,-2882,568
4.395,-1360,-2458,438
4.398,-1452,-2174,402
4.400,-1390,-2038,482
4.403,-1230,-2058,648
4.405,-970,-2188,854
4.407,-676,-2382,1026
4.410,-362,-2560,1096
4.412,-80,-2668,1042
4.415,154,-2734,830
4.417,612,-2676,632
4.420,752,-2184,766
4.422,658,-2092,708
4.425,384,-2454,806
4.427,238,-2470,1008
4.430,418,-2180,1352
4.433,906,-1992,1626
4.435,1600,-1488,1446
4.438,2244,-818,848
4.440,2824,-334,104
4.443,3704,-28,-486
4.445,5622,190,-834
4.447,8378,550,-880
4.449,10836,488,-662
4.452,10744,-462,-794
4.454,6590,-1138,982
4.457,3078,-2768,3532
4.460,1500,-3244,4046
4.462,716,-2296,2984
4.465,60,-1658,1512
4.467,-820,-2494,310
4.470,-1880,-3880,-1304
4.472,-2646,-4840,-2418
4.475,-2790,-5484,-1048
4.477,-3150,-4168,-158
4.480,-4614,-2674,-528
4.482,-4976,-1870,-1554
4.485,-3932,-1646,-1824
4.488,-2504,-1546,-794
4.489,-1508,-1506,648
4.492,-1032,-1610,1564
4.494,-700,-1862,1764
4.497,-236,-2168,1376
4.499,300,-2224,848
4.502,674,-2040,588
4.504,950,-1868,630
4.507,1214,-1868,796
4.510,1410,-1938,974
4.512,1558,-1978,1182
4.515,1752,-2070,1290
4.517,1994,-2204,1206
4.520,2222,-2302,896
4.522,2428,-2302,550
4.525,2590,-2304,392
4.527,2632,-2300,448
4.529,2474,-2190,626
4.531,2182,-2012,920
4.534,1834,-1834,1150
4.537,1548,-1656,1242
4.539,1358,-1508,1178
4.542,1274,-1388,1052
4.544,1294,-1290,960
4.547,1390,-1244,942
4.549,1580,-1292,964
4.552,1864,-1362,984
4.554,2268,-1420,998
4.557,2810,-1396,954
4.560,3448,-1330,780
4.562,4110,-1228,500
4.565,4548,-1088,212
4.567,4636,-908,82
4.569,4432,-700,158
4.571,4120,-500,250
4.574,3892,-368,244
4.576,3770,-296,122
4.579,3716,-278,-14
4.581,3690,-250,-140
4.584,3666,-244,-202
4.587,3662,-236,-226
4.589,3656,-240,-226
4.592,3736,-250,-232
4.594,3826,-190,-322
4.597,3816,-88,-424
4.599,3712,22,-448
4.602,3574,88,-482
4.604,3478,130,-478
4.607,3374,200,-496
4.610,3300,248,-528
4.611,3212,324,-598
4.614,3090,386,-682
4.616,2974,454,-726
4.619,2866,496,-762
4.621,2820,580,-740
4.624,2774,788,-614
4.626,2672,1060,-414
4.629,2570,1346,-196
4.631,2462,1642,-28
4.634,2366,1890,278
4.637,2274,2120,506
4.639,2194,2290,606
4.642,2120,2508,720
4.644,2046,2700,854
4.647,1994,2864,1000
4.649,1942,3042,1000
4.651,1920,3240,818
4.653,1860,3438,566
4.656,1788,3524,350
4.659,1660,3546,254
4.661,1426,3500,328
4.664,1054,3432,582
4.666,690,3396,706
4.669,606,3142,544
4.671,708,2556,332
4.674,742,1946,376
4.676,784,1496,572
4.679,864,1140,686
4.681,942,822,746
4.684,1012,536,856
4.687,1092,270,918
4.689,1256,74,886
4.691,1454,-62,742
4.693,1740,-166,564
4.696,2056,-254,348
4.698,2412,-350,130
4.701,2766,-420,-176
4.703,3094,-514,-514
4.706,3368,-688,-840
4.709,3462,-810,-1030
4.711,3340,-774,-996
4.714,3126,-630,-846
4.716,2884,-506,-674
4.719,2680,-396,-522
4.721,2490,-296,-384
4.724,2352,-228,-256
4.726,2260,-130,-118
4.729,2204,-36,-30
4.731,2190,74,32
4.733,2176,202,64
4.736,2166,302,60
4.738,2156,428,46
4.741,2118,516,20
4.743,2092,604,10
4.746,2068,666,0
4.748,2052,674,6
4.751,2054,676,-2
4.753,2056,632,6
4.756,2066,606,20
4.759,2070,592,2
4.761,2066,588,4
4.764,2044,570,-20
4.766,1998,532,-38
4.769,1924,514,-52
4.771,1840,508,-56
4.773,1762,544,-66
4.775,1640,598,-52
4.778,1548,672,-30
4.780,1468,762,-24
4.783,1410,838,-34
4.786,1370,926,-34
4.788,1344,992,-66
4.791,1358,1044,-60
4.793,1378,1114,-32
4.796,1416,1142,20
4.798,1496,1166,102
4.801,1574,1136,186
4.803,1672,1104,268
4.806,1770,1050,332
4.808,1846,994,374
4.811,1886,900,402
4.813,1858,782,384
4.815,1782,634,378
4.818,1648,460,340
4.820,1504,262,304
4.823,1362,60,280
4.825,1252,-172,244
4.828,1162,-388,210
4.830,1072,-618,174
4.833,1000,-836,174
4.836,936,-1024,174
4.838,880,-1198,234
4.841,814,-1288,330
4.843,770,-1280,420
4.846,688,-1222,510
4.848,512,-1184,540
4.851,298,-1180,524
4.853,118,-1154,490
4.855,-38,-1108,430
4.857,-168,-1046,382
4.860,-284,-1002,328
4.863,-406,-978,324
4.865,-502,-938,298
4.868,-568,-924,312
4.870,-626,-904,300
4.873,-648,-872,306
4.875,-660,-848,328
4.878,-662,-830,318
4.880,-642,-800,316
4.883,-632,-754,324
4.886,-606,-704,322
4.888,-570,-624,322
4.891,-536,-544,308
4.893,-490,-504,314
4.895,-424,-468,284
4.897,-346,-458,266
4.900,-282,-462,250
4.902,-212,-470,208
4.905,-134,-486,204
4.907,-76,-478,162
4.910,-10,-482,160
4.913,42,-480,154
4.915,116,-478,152
4.918,188,-470,178
4.920,246,-464,166
4.923,320,-444,198
4.925,382,-434,210
4.928,448,-410,236
4.930,510,-382,256
4.933,572,-350,256
4.935,640,-382,230
4.937,704,-412,178
4.940,766,-448,112
4.942,788,-482,12
4.945,808,-504,-56
4.947,822,-480,-94
4.950,802,-494,-126
4.952,810,-502,-76
4.955,816,-516,-8
4.957,828,-522,50
4.960,822,-532,98
4.963,800,-520,160
4.965,784,-486,200
4.968,744,-440,240
4.970,698,-368,266
4.973,664,-320,248
4.975,658,-314,238
4.977,690,-314,180
4.979,734,-346,136
4.982,808,-410,100
4.985,920,-508,100
4.987,1044,-680,146
4.990,1202,-880,214
4.992,1362,-1160,278
4.995,1576,-1476,374
4.999,1798,-1826,456
5.001,2026,-2162,484
5.003,2248,-2486,482
5.006,2398,-2832,450
5.008,2484,-3106,486
5.011,2506,-3300,562
5.013,2468,-3406,684
5.016,2384,-3440,894
5.019,2272,-3558,1128
5.021,2162,-3676,1296
5.024,2056,-3788,1502
5.026,2022,-3834,1684
5.029,2028,-3914,1724
5.031,2042,-4040,1610
5.034,2072,-4206,1402
5.036,2068,-4278,938
5.039,2026,-4102,246
5.041,1864,-3650,-602
5.043,1644,-3048,-1288
5.046,1390,-2594,-1326
5.048,1174,-2712,-588
5.051,1062,-3272,416
5.053,1016,-3830,1082
5.056,1110,-4226,1398
5.058,1386,-4624,1394
5.061,1606,-5182,1266
5.063,1720,-5516,1088
5.066,1658,-5544,880
5.069,1190,-5266,822
5.071,554,-4730,844
5.074,80,-4076,732
5.076,-228,-3434,554
5.079,-514,-2882,416
5.081,-752,-2392,354
5.083,-938,-1976,392
5.085,-1014,-1648,478
5.088,-1008,-1428,572
5.091,-910,-1342,710
5.093,-770,-1396,860
5.096,-592,-1568,972
5.098,-384,-1774,914
5.101,-228,-1964,728
5.103,108,-2090,434
5.106,554,-1946,394
5.108,390,-1668,604
5.111,118,-2010,744
5.113,-168,-2370,1118
5.116,-164,-2174,1472
5.119,122,-2046,1690
5.121,690,-1846,1708
5.123,1400,-1408,1270
5.125,2166,-1028,444
5.128,3214,-736,-322
5.130,5158,-486,-1046
5.133,8084,-258,-1298
5.135,11042,44,-770
5.138,12296,-804,-966
5.141,8100,-1164,486
5.143,3806,-2424,3622
5.146,1832,-3292,5252
5.148,774,-2302,4316
5.151,26,-1246,2508
5.153,-774,-2136,1064
5.156,-2024,-4084,-242
5.158,-2922,-5548,-1720
5.161,-2780,-6920,-1458
5.162,-2268,-5548,-906
5.165,-3676,-3266,-1328
5.168,-4888,-2282,-1858
5.170,-4374,-2142,-1814
5.173,-2864,-1704,-798
5.175,-1608,-1192,466
5.178,-1010,-1178,1536
5.180,-752,-1528,1966
5.183,-466,-1936,1928
5.185,-12,-2138,1296
5.188,414,-1918,480
5.191,680,-1674,336
5.193,954,-1612,486
5.196,1188,-1634,582
5.198,1334,-1634,876
5.201,1524,-1660,1162
5.203,1726,-1724,1158
5.205,1962,-1854,980
5.207,2222,-1934,774
5.210,2536,-1922,606
5.212,2818,-1922,524
5.215,2840,-1924,434
5.218,2580,-1872,534
5.220,2186,-1766,762
5.223,1790,-1682,942
5.225,1494,-1626,1014
5.228,1304,-1550,994
5.230,1260,-1436,926
5.233,1304,-1324,852
5.235,1410,-1348,852
5.238,1614,-1478,870
5.241,1918,-1598,852
5.243,2362,-1646,786
5.245,2954,-1642,722
5.247,3644,-1648,588
5.250,4290,-1604,288
5.252,4654,-1490,-48
5.255,4654,-1282,-164
5.257,4388,-994,-128
5.260,4086,-686,-30
5.262,3804,-450,-10
5.265,3638,-336,-74
5.268,3568,-278,-142
5.270,3536,-246,-200
5.273,3526,-230,-218
5.275,3548,-210,-246
5.278,3594,-172,-328
5.280,3630,-70,-450
5.283,3600,2,-552
5.284,3520,100,-618
5.287,3390,176,-608
5.289,3270,228,-580
5.292,3158,250,-560
5.295,3100,286,-530
5.297,3048,316,-554
5.300,2978,346,-608
5.302,2854,384,-648
5.305,2698,392,-638
5.307,2624,332,-634
5.310,2654,394,-706
5.320,2528,1250,-230
5.323,2460,1490,-84
5.325,2348,1682,156
5.327,2230,1836,398
5.329,2132,1966,588
5.332,2082,2108,712
5.334,2058,2320,818
5.337,2068,2574,924
5.339,2096,2750,900
5.342,2118,2974,798
5.345,2158,3252,568
5.347,2138,3440,308
5.350,2072,3518,116
5.352,1898,3482,202
5.355,1610,3444,432
5.357,1256,3454,580
5.360,1070,3262,466
5.362,1078,2796,202
5.365,1032,2298,190
5.367,1004,1858,426
5.369,1038,1420,622
5.372,1084,982,754
5.374,1144,622,852
5.377,1230,338,914
5.379,1332,110,906
5.382,1514,-50,840
5.384,1726,-206,704
5.387,1992,-348,502
5.389,2314,-492,254
5.392,2664,-666,-4
5.395,3080,-880,-334
5.397,3504,-1196,-710
5.400,3728,-1426,-910
5.402,3704,-1454,-882
5.405,3556,-1394,-748
5.406,3342,-1284,-628
5.409,3122,-1112,-520
5.411,2908,-912,-372
5.414,2748,-720,-182
5.417,2656,-510,56
5.419,2608,-306,266
5.422,2600,-98,430
5.424,2582,114,564
5.427,2570,344,632
5.429,2544,586,638
5.432,2492,814,574
5.434,2426,1008,498
5.437,2350,1174,364
5.439,2286,1268,240
5.442,2206,1302,132
5.445,2134,1286,52
5.447,2072,1246,0
5.449,1998,1148,-52
5.451,1922,1022,-92
5.454,1822,874,-132
5.456,1738,720,-158
5.459,1670,592,-160
5.461,1584,490,-172
5.464,1524,432,-206
5.467,1452,432,-236
5.469,1374,414,-248
5.472,1302,410,-248
5.474,1252,414,-250
5.477,1220,414,-248
5.479,1202,416,-258
5.482,1206,408,-222
5.484,1232,406,-164
5.487,1276,396,-84
5.488,1334,410,8
5.491,1422,390,110
5.494,1530,388,200
5.496,1616,378,300
5.499,1714,364,382
5.501,1786,350,480
5.504,1804,310,512
5.506,1790,280,496
5.509,1706,240,464
5.511,1598,202,384
5.514,1464,146,292
5.516,1318,52,198
5.519,1198,-36,136
5.522,1070,-150,44
5.524,980,-280,10
5.527,870,-412,10
5.528,794,-488,72
5.531,738,-540,204
5.533,576,-750,256
5.536,300,-1018,232
5.538,-70,-1192,122
5.541,-400,-1256,58
5.544,-660,-1256,76
5.546,-866,-1236,116
5.549,-1024,-1134,174
5.551,-1188,-994,186
5.554,-1302,-830,174
5.556,-1390,-712,140
5.559,-1436,-652,140
5.561,-1448,-620,196
5.564,-1424,-608,234
5.566,-1360,-584,314
5.569,-1304,-526,324
5.571,-1246,-436,318
5.573,-1176,-304,272
5.576,-1094,-178,252
5.578,-984,-62,222
5.581,-854,14,218
5.583,-686,68,238
5.586,-528,106,246
5.588,-382,90,266
5.591,-244,58,294
5.594,-122,20,298
5.596,-26,-30,300
5.599,66,-78,290
5.601,132,-132,252
5.604,208,-166,222
5.606,266,-214,172
5.609,324,-248,162
5.610,380,-274,136
5.613,428,-302,126
5.615,480,-292,122
5.618,530,-288,134
5.621,570,-292,108
5.623,610,-270,90
5.626,656,-250,104
5.628,700,-218,124
5.631,738,-176,132
5.633,790,-120,126
5.636,830,-88,112
5.638,876,-66,82
5.641,918,-74,18
5.644,956,-88,-24
5.646,972,-118,-86
5.649,974,-192,-138
5.650,984,-286,-140
5.653,968,-404,-134
5.655,972,-532,-94
5.658,968,-628,-40
5.660,944,-722,-2
5.663,920,-788,58
5.665,862,-864,118
5.668,820,-970,182
5.671,788,-1052,176
5.673,772,-1142,162
5.676,770,-1252,144
5.678,774,-1362,166
5.681,810,-1464,170
5.683,848,-1556,142
5.686,924,-1692,178
5.688,1006,-1850,206
5.691,1112,-2054,268
5.693,1264,-2262,378
5.695,1428,-2512,464
5.698,1602,-2754,538
5.700,1788,-2950,576
5.703,1992,-3096,606
5.705,2192,-3196,694
5.708,2408,-3298,858
5.710,2634,-3456,1072
5.713,2812,-3640,1294
5.715,2904,-3832,1518
5.718,2906,-3960,1760
5.721,2834,-4086,1864
5.723,2698,-4138,1884
5.726,2534,-4118,1672
5.728,2362,-4024,1268
5.731,2208,-3722,694
5.732,2008,-3258,32
5.735,1802,-2734,-498
5.737,1590,-2336,-690
5.740,1386,-2158,-440
5.743,1200,-2280,158
5.745,1094,-2726,846
5.748,1108,-3222,1270
5.750,1238,-3558,1416
5.753,1446,-3798,1372
5.755,1564,-4168,1248
5.758,1518,-4416,1078
5.760,1362,-4424,820
5.763,1054,-4212,552
5.765,634,-3834,474
5.768,218,-3404,434
5.771,-146,-3028,350
5.772,-446,-2680,250
5.775,-714,-2410,192
5.777,-906,-2202,166
5.780,-1014,-2094,158
5.782,-1020,-2110,208
5.785,-956,-2190,268
5.787,-834,-2296,342
5.790,-662,-2390,430
5.793,-374,-2498,470
5.795,218,-2338,710
5.798,400,-1746,1084
5.800,314,-1832,1194
5.803,48,-2134,1298
5.805,58,-2068,1356
5.808,438,-2050,1684
5.810,1214,-2026,1854
5.813,2310,-1666,1476
5.814,3782,-1066,578
5.817,6070,-558,-568
5.820,8688,-10,-1430
5.822,10526,270,-1646
5.825,10662,-78,-1674
5.827,8198,386,-1328
5.830,4864,386,-546
5.832,2248,-674,882
5.835,1076,-3156,3090
5.837,894,-3756,3962
5.840,764,-1928,3112
5.843,312,-1078,2064
5.845,-648,-1268,1514
5.848,-2128,-2026,976
5.850,-3400,-3780,-566
5.853,-3826,-5272,-1150
5.854,-3496,-4880,-762
5.857,-4120,-3058,-492
5.859,-4430,-1844,-850
5.862,-3494,-1702,-1258
5.864,-2224,-1850,-1218
5.867,-1312,-1864,-288
5.870,-770,-1934,878
5.872,-526,-2082,1752
5.875,-352,-2318,2216
5.877,42,-2508,1720
5.880,454,-2460,694
5.882,746,-2268,208
5.885,1024,-2056,204
5.887,1270,-1854,206
5.890,1424,-1764,440
5.892,1554,-1742,818
5.894,1662,-1770,1018
5.897,1790,-1870,1050
5.899,1952,-2008,1048
5.902,2144,-2084,1018
5.904,2404,-2022,904
5.907,2594,-1872,756
5.909,2576,-1698,680
5.912,2376,-1496,646
5.914,2064,-1372,710
5.917,1782,-1366,826
5.920,1584,-1394,910
5.922,1514,-1418,892
5.925,1552,-1396,782
5.927,1702,-1388,658
5.930,1962,-1446,598
5.932,2322,-1460,546
5.935,2762,-1458,542
5.936,3290,-1492,530
5.939,3804,-1552,338
5.941,4170,-1546,50
5.944,4296,-1462,-156
5.947,4276,-1244,-134
5.949,4142,-926,-66
5.952,3950,-650,-44
5.954,3796,-478,-100
5.957,3694,-380,-170
5.959,3652,-328,-178
5.962,3616,-294,-186
5.964,3584,-284,-206
5.967,3610,-270,-270
5.970,3692,-222,-372
5.972,3718,-130,-486
5.975,3652,-24,-556
5.976,3546,58,-578
5.979,3402,112,-570
5.981,3292,116,-526
5.984,3230,112,-488
5.986,3182,148,-486
5.989,3110,182,-514
5.991,2996,248,-584
5.994,2822,280,-648
5.999,2668,294,-638
6.000,2590,290,-654
6.003,2578,410,-662
6.005,2566,640,-560
6.008,2528,922,-352
6.010,2506,1272,-190
6.013,2514,1584,24
6.015,2526,1914,198
6.018,2500,2174,342
6.021,2458,2378,444
6.023,2400,2552,512
6.026,2340,2752,570
6.028,2280,2904,620
6.031,2180,3062,648
6.033,2070,3212,624
6.036,1974,3304,532
6.038,1872,3358,438
6.040,1768,3360,434
6.042,1588,3346,564
6.045,1340,3324,714
6.048,1042,3354,726
6.050,934,3254,562
6.053,1064,2900,224
6.055,1128,2422,126
6.058,1096,1896,346
6.060,1120,1386,590
6.063,1180,956,744
6.065,1242,608,878
6.068,1312,308,1002
6.071,1426,50,1094
6.073,1596,-154,1120
6.076,1810,-320,1018
6.078,2078,-476,830
6.081,2370,-606,570
6.082,2688,-752,264
6.085,3030,-894,-92
6.087,3340,-1098,-510
6.090,3528,-1274,-854
6.092,3488,-1282,-968
6.095,3342,-1220,-888
6.098,3166,-1124,-766
6.100,3018,-1006,-608
6.103,2894,-822,-434
6.105,2794,-632,-212
6.108,2730,-424,26
6.110,2698,-216,244
6.113,2684,8,432
6.115,2678,290,530
6.118,2664,506,574
6.121,2630,768,552
6.122,2566,994,462
6.125,2472,1188,336
6.127,2368,1364,170
6.130,2240,1460,10
6.132,2124,1492,-112
6.135,2022,1452,-218
6.137,1912,1340,-300
6.140,1800,1248,-328
6.142,1678,1114,-320
6.145,1578,994,-334
6.148,1476,840,-316
6.150,1396,722,-316
6.153,1316,624,-320
6.155,1252,548,-330
6.158,1192,512,-326
6.160,1138,486,-342
6.162,1118,474,-290
6.164,1096,474,-254
6.167,1102,490,-224
6.170,1122,512,-180
6.172,1144,534,-144
6.175,1182,576,-92
6.177,1254,628,-74
6.180,1290,646,-42
6.182,1344,668,-30
6.185,1386,660,-50
6.187,1452,646,-22
6.190,1480,626,-34
6.192,1498,574,-32
6.195,1498,536,-12
6.198,1476,452,0
6.200,1426,346,4
6.203,1346,230,0
6.204,1276,98,28
6.207,1174,-48,50
6.209,1074,-224,82
6.212,980,-376,136
6.214,882,-544,154
6.217,810,-690,190
6.220,760,-794,248
6.222,714,-906,324
6.225,574,-1046,316
6.227,278,-1278,232
6.230,-80,-1434,122
6.232,-432,-1526,20
6.235,-694,-1512,14
6.237,-900,-1402,68
6.240,-1070,-1238,140
6.242,-1222,-1054,190
6.244,-1328,-904,206
6.247,-1372,-796,202
6.249,-1376,-744,228
6.252,-1330,-728,262
6.254,-1274,-718,330
6.257,-1204,-716,396
6.259,-1136,-674,466
6.262,-1070,-588,496
6.264,-1006,-476,496
6.267,-944,-322,482
6.269,-868,-180,454
6.272,-754,-30,444
6.275,-640,76,432
6.277,-494,174,462
6.280,-334,230,498
6.282,-190,240,524
6.284,-38,228,550
6.286,94,186,548
6.289,214,132,544
6.291,304,108,508
6.294,402,70,472
6.297,468,40,428
6.299,536,12,364
6.302,588,-4,316
6.304,610,-12,314
6.307,630,10,298
6.309,634,2,292
6.312,636,-110,226
6.314,650,-296,132
6.317,674,-498,10
6.319,720,-672,-112
6.322,722,-720,-258
6.325,712,-738,-354
6.326,682,-724,-414
6.329,688,-758,-384
6.331,730,-778,-264
6.334,770,-764,-92
6.336,782,-740,80
6.339,786,-712,204
6.341,762,-672,260
6.344,734,-596,260
6.347,684,-576,264
6.349,672,-552,262
6.352,654,-538,232
6.354,664,-552,240
6.357,694,-582,230
6.359,760,-656,252
6.362,834,-722,282
6.364,940,-804,286
6.366,1060,-944,318
6.368,1208,-1116,324
6.371,1364,-1348,338
6.374,1552,-1636,374
6.376,1730,-1926,440
6.379,1950,-2162,526
6.381,2142,-2364,548
6.384,2306,-2548,516
6.386,2420,-2708,492
6.389,2488,-2806,556
6.391,2514,-2844,690
6.394,2500,-2874,854
6.397,2510,-3010,1038
6.399,2556,-3120,1384
6.402,2644,-3246,1708
6.404,2724,-3316,1970
6.406,2758,-3382,2104
6.408,2738,-3444,2028
6.411,2650,-3464,1676
6.413,2506,-3338,1090
6.416,2292,-3002,316
6.418,2036,-2520,-522
6.421,1774,-2030,-1092
6.424,1458,-1646,-1110
6.426,1180,-1572,-512
6.429,1000,-1920,322
6.431,932,-2608,846
6.434,978,-3216,1078
6.436,1288,-3496,1100
6.439,1830,-3838,896
6.441,2154,-4550,758
6.444,2148,-4984,818
6.447,1962,-5150,950
6.448,1514,-5070,1094
6.451,860,-4700,1206
6.453,162,-4104,1014
6.456,-410,-3448,660
6.458,-868,-2846,300
6.461,-1176,-2366,12
6.463,-1322,-2008,-114
6.466,-1332,-1774,-102
6.468,-1210,-1666,70
6.471,-1004,-1668,292
6.474,-742,-1776,546
6.476,-460,-1922,790
6.479,-194,-2060,932
6.481,52,-2152,920
6.484,268,-2198,780
6.486,486,-2184,570
6.488,690,-2102,354
6.490,1034,-1922,360
6.493,1300,-1334,552
6.496,1230,-1474,542
6.498,1122,-1670,626
6.501,1304,-1348,836
6.503,1592,-994,1286
6.506,2144,-648,1070
6.508,3088,-354,310
6.511,4332,-34,-510
6.513,6014,376,-1146
6.516,8106,714,-1362
6.518,10020,688,-1132
6.521,10176,386,-1290
6.524,7278,106,-822
6.526,3784,-848,412
6.528,1602,-2734,1706
6.530,690,-4024,2656
6.533,448,-3274,3330
6.535,230,-2274,3204
6.538,-360,-2194,2292
6.540,-1428,-3104,1478
6.543,-2732,-4534,100
6.545,-3474,-5378,-2020
6.548,-3476,-6274,-1054
6.551,-4020,-5360,-552
6.553,-4974,-3902,-674
6.556,-4490,-2662,-1246
6.558,-3108,-2110,-1216
6.561,-1988,-1606,-448
6.563,-1398,-1468,836
6.566,-930,-1574,1880
6.568,-532,-1756,2020
6.570,-218,-1940,1536
6.573,68,-2002,850
6.575,386,-1802,298
6.578,780,-1486,140
6.580,1156,-1304,270
6.583,1440,-1334,540
6.585,1658,-1458,948
6.588,1866,-1548,1304
6.590,2142,-1632,1526
6.593,2522,-1840,1620
6.595,3056,-2086,1506
6.598,3438,-2160,964
6.601,3290,-2050,394
6.603,2710,-1746,272
6.606,2062,-1436,462
6.608,1552,-1296,726
6.610,1192,-1320,920
6.612,974,-1412,980
6.615,922,-1484,908
6.617,976,-1508,750
6.620,1082,-1490,664
6.623,1212,-1494,658
6.625,1354,-1596,756
6.628,1578,-1744,760
6.630,1866,-1796,704
6.633,2244,-1790,658
6.635,2718,-1784,596
6.638,3334,-1698,558
6.640,3946,-1648,382
6.643,4406,-1570,146
6.645,4556,-1418,52
6.648,4460,-1176,170
6.650,4298,-894,266
6.652,4134,-606,210
6.655,4024,-392,86
6.657,3920,-292,-62
6.660,3822,-266,-196
6.662,3724,-238,-262
6.665,3660,-254,-254
6.667,3714,-310,-256
6.670,3836,-292,-300
6.673,3896,-228,-384
6.675,3872,-106,-466
6.678,3780,30,-526
6.680,3676,164,-534
6.683,3560,262,-512
6.685,3434,372,-494
6.688,3316,472,-516
6.690,3164,592,-600
6.692,2994,728,-684
6.694,2788,852,-702
6.697,2650,914,-668
6.700,2610,1002,-598
6.702,2590,1190,-472
6.705,2538,1434,-234
6.707,2448,1670,-10
6.710,2304,1902,236
6.712,2230,2086,372
6.715,2150,2224,474
6.717,2090,2344,526
6.720,2038,2434,562
6.723,1994,2558,608
6.725,1932,2704,618
6.728,1854,2782,630
6.730,1778,2860,594
6.732,1704,2866,592
6.734,1674,2912,596
6.737,1588,2992,678
6.739,1436,3108,816
6.742,1228,3210,792
6.744,992,3258,574
6.747,798,3248,234
6.750,810,3058,-122
6.752,900,2614,-310
6.755,924,1996,-146
6.757,954,1380,220
6.760,1014,886,458
6.762,1124,554,606
6.765,1240,286,796
6.767,1368,28,1002
6.770,1542,-182,1160
6.772,1736,-308,1160
6.774,1988,-404,1056
6.777,2270,-484,870
6.779,2562,-562,626
6.782,2886,-620,352
6.784,3214,-658,8
6.787,3512,-726,-362
6.789,3642,-800,-636
6.792,3552,-798,-690
6.794,3324,-702,-626
6.797,3096,-598,-530
6.800,2906,-504,-410
6.802,2754,-392,-276
6.805,2624,-272,-140
6.807,2538,-124,2
6.810,2482,32,122
6.812,2456,212,224
6.814,2440,376,254
6.816,2426,562,260
6.819,2402,762,222
6.822,2360,946,136
6.824,2294,1130,36
6.827,2196,1260,-84
6.829,2086,1322,-192
6.832,1982,1376,-276
6.834,1862,1368,-320
6.837,1746,1358,-332
6.839,1626,1294,-350
6.842,1514,1198,-340
6.844,1418,1116,-378
6.847,1326,1012,-374
6.850,1240,916,-338
6.852,1184,850,-308
6.854,1140,812,-258
6.856,1112,766,-228
6.859,1110,730,-210
6.861,1126,704,-192
6.864,1166,666,-188
6.866,1242,640,-182
6.869,1296,598,-186
6.871,1390,554,-158
6.874,1476,506,-150
6.877,1562,434,-114
6.879,1660,372,-56
6.882,1748,298,-14
6.884,1846,248,50
6.887,1908,184,114
6.889,1938,112,162
6.892,1914,34,206
6.894,1834,-68,238
6.896,1722,-164,250
6.899,1574,-270,230
6.901,1440,-360,224
6.904,1306,-476,192
6.906,1192,-542,148
6.909,1086,-626,108
6.911,980,-720,48
6.914,882,-816,30
6.916,800,-894,42
6.919,728,-940,178
6.921,646,-948,358
6.924,482,-1016,484
6.927,222,-1126,526
6.929,-72,-1192,452
6.932,-340,-1226,386
6.934,-538,-1220,322
6.936,-710,-1186,236
6.938,-828,-1132,184
6.941,-942,-1056,132
6.943,-1024,-1016,110
6.946,-1056,-994,118
6.949,-1066,-998,172
6.951,-1062,-994,242
6.954,-1048,-960,288
6.956,-1022,-892,324
6.959,-1002,-766,318
6.961,-972,-626,302
6.964,-924,-452,274
6.966,-868,-282,252
6.969,-774,-136,224
6.971,-668,-26,204
6.974,-530,36,222
6.976,-394,84,252
6.978,-258,70,264
6.981,-114,64,282
6.983,8,36,298
6.986,116,-4,300
6.988,218,-24,298
6.991,306,-56,292
6.993,378,-78,258
6.998,432,-130,244
7.000,508,-154,240
7.002,534,-166,226
7.005,574,-180,236
7.007,596,-200,242
7.010,632,-246,216
7.012,670,-322,158
7.015,696,-398,88
7.017,728,-468,-10
7.020,744,-492,-116
7.022,740,-524,-190
7.025,734,-546,-200
7.028,730,-564,-174
7.030,722,-594,-96
7.033,726,-622,-6
7.035,724,-668,54
7.038,728,-710,114
7.040,716,-750,178
7.042,706,-752,232
7.044,698,-736,288
7.047,674,-716,390
7.049,652,-688,408
7.052,646,-668,394
7.055,666,-676,370
7.057,698,-710,286
7.060,744,-768,204
7.062,800,-848,140
7.065,880,-1014,120
7.067,974,-1200,122
7.070,1076,-1428,218
7.072,1220,-1712,372
7.075,1392,-2020,524
7.077,1594,-2330,594
7.080,1802,-2610,532
7.082,1970,-2884,452
7.084,2114,-3130,442
7.087,2222,-3348,504
7.089,2318,-3544,682
7.092,2392,-3650,894
7.094,2412,-3760,1178
7.097,2332,-3872,1414
7.099,2162,-3926,1758
7.102,2062,-3878,1958
7.105,2028,-3816,1936
7.107,2058,-3774,1802
7.110,2118,-3770,1522
7.112,2166,-3712,1082
7.115,2168,-3458,474
7.117,2058,-2974,-316
7.120,1856,-2292,-1002
7.122,1536,-1624,-1266
7.124,1204,-1398,-836
7.126,978,-1778,40
7.129,898,-2488,754
7.132,954,-3106,1140
7.134,1176,-3442,1292
7.137,1646,-3704,1204
7.139,1990,-4368,976
7.142,2006,-4900,806
7.144,1884,-5054,750
7.147,1434,-4914,806
7.149,766,-4572,962
7.152,164,-4012,916
7.155,-324,-3398,714
7.157,-710,-2872,524
7.160,-1008,-2440,344
7.162,-1160,-2066,222
7.164,-1188,-1772,180
7.166,-1088,-1592,250
7.169,-914,-1548,426
7.171,-690,-1630,636
7.174,-446,-1794,792
7.176,-198,-1972,840
7.179,4,-2096,756
7.182,430,-2156,580
7.184,644,-1790,720
7.187,608,-1624,648
7.189,426,-2052,480
7.192,266,-2258,580
7.194,356,-2072,714
7.197,716,-2024,964
7.199,1370,-1664,1042
7.202,2122,-1106,550
7.204,2974,-712,-310
7.206,4316,-406,-1208
7.209,6658,-170,-1636
7.211,9538,10,-1238
7.214,12538,-1014,-1218
7.216,11404,-1838,-990
7.219,6338,-1878,1666
7.221,2960,-2874,4320
7.224,1530,-2458,4074
7.226,676,-1160,2350
7.229,-114,-1070,926
7.232,-1076,-2304,-124
7.234,-2106,-4074,-1182
7.237,-2912,-6046,-1890
7.239,-3042,-6660,-560
7.242,-3932,-4682,-18
7.244,-5722,-3184,-544
7.246,-5714,-2584,-1644
7.248,-3882,-1916,-1654
7.251,-2070,-1346,-382
7.254,-1206,-1456,1122
7.256,-786,-1904,1838
7.259,-380,-2108,1482
7.261,50,-2006,756
7.264,386,-1754,412
7.266,694,-1540,426
7.269,936,-1490,348
7.271,1102,-1482,420
7.274,1264,-1424,832
7.276,1550,-1432,1200
7.279,1870,-1604,1248
7.282,2238,-1850,1140
7.284,2628,-2026,952
7.286,3058,-2062,776
7.288,3396,-2030,646
7.291,3360,-1986,542
7.293,2914,-1906,570
7.296,2318,-1784,698
7.298,1844,-1698,838
7.301,1504,-1622,956
7.304,1316,-1532,952
7.306,1270,-1430,916
7.309,1300,-1364,898
7.311,1442,-1386,910
7.314,1698,-1458,956
7.316,2116,-1508,958
7.319,2688,-1428,876
7.321,3398,-1296,764
7.324,4152,-1166,580
7.325,4716,-1072,238
7.328,4882,-982,-32
7.331,4646,-792,-48
7.333,4228,-578,10
7.336,3886,-420,60
7.338,3676,-346,-40
7.341,3630,-270,-176
7.343,3624,-224,-274
7.346,3614,-162,-276
7.348,3648,-148,-264
7.351,3748,-108,-294
7.353,3806,4,-350
7.356,3788,102,-422
7.359,3736,228,-510
7.361,3622,354,-558
7.364,3484,434,-518
7.366,3358,492,-496
7.368,3242,522,-498
7.370,3154,558,-522
7.373,3036,628,-572
7.375,2860,706,-572
7.378,2700,774,-514
7.381,2620,796,-494
7.383,2616,934,-490
7.386,2582,1164,-404
7.388,2544,1442,-266
7.391,2482,1730,-66
7.393,2400,1992,114
7.396,2320,2208,310
7.398,2252,2346,482
7.401,2192,2418,636
7.403,2132,2494,680
7.406,2070,2554,658
7.408,2010,2638,640
7.410,1926,2718,612
7.413,1844,2806,554
7.415,1760,2840,534
7.418,1670,2848,556
7.420,1550,2876,700
7.423,1390,2970,768
7.425,1190,3044,692
7.428,896,3082,448
7.431,666,3128,242
7.433,724,2910,32
7.436,834,2326,-8
7.438,858,1742,250
7.441,902,1256,502
7.443,982,886,704
7.446,1076,578,876
7.447,1186,304,1044
7.450,1302,94,1154
7.452,1466,-48,1108
7.455,1680,-114,968
7.458,1890,-138,738
7.460,2134,-92,458
7.463,2368,-6,142
7.465,2584,74,-172
7.468,2752,136,-482
7.470,2840,76,-750
7.473,2866,-106,-930
7.475,2776,-302,-1000
7.478,2616,-456,-924
7.481,2476,-548,-768
7.483,2380,-636,-640
7.486,2326,-706,-508
7.488,2284,-732,-402
7.490,2266,-712,-290
7.492,2252,-632,-202
7.495,2252,-524,-102
7.497,2272,-366,-16
7.500,2272,-180,66
7.502,2304,30,130
7.505,2308,234,158
7.508,2306,418,190
7.510,2306,594,176
7.513,2292,744,128
7.515,2272,890,42
7.518,2216,996,-32
7.520,2154,1068,-76
7.523,2070,1124,-140
7.525,1982,1156,-156
7.528,1872,1154,-172
7.530,1758,1112,-218
7.532,1638,1064,-208
7.535,1514,1014,-200
7.537,1388,974,-206
7.540,1280,962,-196
7.542,1174,932,-190
7.545,1102,924,-186
7.547,1040,920,-210
7.550,1028,880,-210
7.552,1024,870,-220
7.555,1036,816,-200
7.558,1080,784,-166
7.560,1138,744,-140
7.563,1216,692,-44
7.565,1304,630,26
7.568,1406,542,106
7.569,1536,468,200
7.572,1632,394,264
7.574,1742,304,346
7.577,1806,204,406
7.579,1842,82,442
7.582,1814,-46,488
7.585,1744,-184,506
7.587,1630,-310,528
7.590,1494,-456,498
7.592,1360,-578,430
7.595,1248,-702,344
7.597,1142,-816,296
7.600,1078,-914,294
7.602,1042,-928,316
7.605,990,-912,366
7.608,806,-1044,356
7.610,494,-1272,346
7.612,180,-1400,272
7.614,-100,-1396,250
7.617,-284,-1300,298
7.619,-440,-1184,392
7.622,-526,-1060,488
7.624,-610,-920,524
7.627,-690,-806,514
7.629,-738,-728,482
7.632,-776,-692,416
7.635,-790,-696,382
7.637,-776,-734,350
7.640,-760,-778,352
7.642,-738,-776,388
7.645,-716,-752,458
7.647,-714,-654,498
7.650,-742,-506,560
7.651,-768,-344,582
7.654,-764,-214,564
7.657,-728,-126,548
7.659,-660,-100,502
7.662,-582,-116,446
7.664,-486,-162,408
7.667,-376,-212,368
7.669,-252,-270,308
7.672,-140,-328,286
7.674,-28,-380,248
7.677,72,-414,222
7.679,164,-446,194
7.682,236,-484,178
7.685,296,-516,184
7.687,360,-522,188
7.690,416,-510,214
7.691,454,-476,256
7.694,508,-440,272
7.696,524,-444,312
7.699,580,-464,282
7.701,636,-510,220
7.704,686,-540,134
7.707,730,-534,42
7.709,724,-512,-6
7.712,716,-472,-68
7.714,694,-470,-48
7.717,692,-500,-22
7.719,716,-534,58
7.722,722,-572,152
7.724,734,-598,224
7.727,730,-620,280
7.729,696,-666,284
7.732,650,-678,322
7.734,576,-620,342
7.736,516,-594,348
7.739,470,-542,346
7.741,460,-530,304
7.744,474,-568,252
7.746,502,-638,192
7.749,558,-722,156
7.751,636,-824,150
7.754,728,-960,182
7.757,822,-1102,222
7.759,948,-1254,244
7.762,1122,-1402,334
7.764,1318,-1588,408
7.767,1556,-1798,504
7.769,1818,-1992,516
7.772,2084,-2200,480
7.773,2338,-2394,452
7.776,2576,-2594,456
7.778,2792,-2800,604
7.781,2986,-3036,832
7.784,3198,-3304,1098
7.786,3360,-3570,1336
7.789,3384,-3818,1656
7.791,3246,-4080,1828
7.794,3006,-4298,1820
7.796,2736,-4412,1580
7.799,2468,-4382,1124
7.801,2224,-4204,498
7.804,1968,-3828,-200
7.807,1678,-3322,-812
7.809,1366,-2742,-1162
7.812,1028,-2258,-1020
7.813,800,-2152,-362
7.816,740,-2462,366
7.818,830,-2930,878
7.821,1102,-3258,1162
7.823,1496,-3562,1262
7.826,1884,-4018,1142
7.828,2038,-4444,894
7.831,1964,-4656,632
7.834,1630,-4652,482
7.836,1124,-4444,526
7.839,638,-4016,666
7.841,236,-3478,740
7.844,-130,-2892,724
7.846,-468,-2326,614
7.849,-770,-1850,418
7.851,-1036,-1486,170
7.854,-1198,-1322,-36
7.855,-1254,-1352,-34
7.858,-1218,-1534,132
7.861,-1060,-1796,402
7.863,-836,-2080,618
7.866,-560,-2306,774
7.868,-322,-2450,818
7.871,-152,-2504,780
7.873,44,-2504,590
7.876,446,-2468,348
7.878,798,-2028,428
7.881,930,-1660,500
7.884,908,-1812,510
7.886,810,-1914,878
7.889,906,-1670,1088
7.891,1256,-1436,1196
7.894,1900,-1232,1176
7.895,2778,-956,776
7.898,3726,-508,-108
7.900,5058,2,-1056
7.903,7002,306,-1550
7.905,8786,290,-1464
7.908,9624,204,-1688
7.911,8718,-380,-1478
7.913,5848,-1034,424
7.916,3410,-3116,3104
7.918,2114,-3726,4216
7.921,1394,-2394,3584
7.923,772,-1062,1932
7.926,-180,-884,844
7.928,-1274,-1978,-156
7.931,-2230,-3424,-1362
7.934,-3054,-4666,-1886
7.935,-3504,-5358,-196
7.938,-4596,-3966,922
7.940,-5592,-2448,-148
7.943,-5026,-1648,-1934
7.945,-3560,-1590,-1902
7.948,-2232,-1906,-378
7.950,-1442,-2176,1018
7.953,-906,-2322,1616
7.955,-326,-2372,1360
7.958,214,-2240,674
7.961,612,-2012,410
7.963,894,-1832,496
7.966,1070,-1800,576
7.968,1176,-1826,818
7.971,1358,-1908,1078
7.973,1680,-2062,1096
7.976,2080,-2226,994
7.977,2530,-2324,842
7.980,2960,-2352,700
7.982,3362,-2370,626
7.985,3488,-2308,608
7.988,3170,-2150,720
7.990,2592,-1896,940
7.993,2044,-1640,1040
7.995,1662,-1506,1002
8.000,1424,-1348,920
8.001,1342,-1166,918
8.004,1344,-1088,980
8.006,1434,-1146,1024
8.009,1666,-1210,1020
8.012,2012,-1210,976
8.014,2494,-1162,900
8.017,3086,-1120,792
8.019,3670,-1096,594
8.022,4116,-1050,352
8.024,4252,-1028,184
8.027,4152,-962,126
8.029,3950,-824,122
8.032,3772,-684,104
8.034,3660,-548,22
8.037,3580,-480,-90
8.040,3560,-410,-176
8.041,3546,-342,-220
8.044,3524,-310,-210
8.046,3536,-298,-200
8.049,3622,-266,-242
8.051,3692,-160,-330
8.054,3672,-30,-432
8.056,3588,88,-496
8.059,3430,172,-518
8.062,3310,210,-502
8.064,3214,234,-480
8.067,3144,232,-474
8.069,3076,290,-502
8.072,2976,312,-572
8.074,2840,342,-614
8.077,2718,360,-642
8.079,2670,362,-630
8.081,2682,478,-608
8.083,2672,680,-542
8.086,2668,954,-400
8.089,2606,1226,-196
8.091,2560,1472,16
8.094,2466,1664,190
8.096,2356,1830,362
8.099,2258,2008,542
8.101,2156,2158,672
8.104,2078,2326,792
8.106,2038,2532,842
8.109,2002,2716,826
8.112,1986,2938,704
8.114,1946,3172,534
8.117,1902,3352,444
8.119,1814,3464,494
8.122,1676,3500,744
8.123,1400,3514,950
8.126,1026,3478,996
8.128,726,3370,778
8.131,736,3064,418
8.133,800,2554,196
8.136,786,1942,342
8.139,816,1380,614
8.141,916,940,738
8.144,1018,616,796
8.146,1118,374,864
8.149,1232,146,902
8.151,1400,-12,908
8.154,1632,-116,818
8.156,1910,-206,678
8.159,2202,-272,466
8.161,2516,-366,220
8.163,2832,-488,-92
8.166,3114,-660,-420
8.168,3334,-848,-758
8.171,3380,-998,-978
8.173,3268,-986,-994
8.176,3086,-880,-864
8.178,2928,-804,-730
8.181,2800,-736,-578
8.183,2706,-670,-440
8.186,2650,-576,-240
8.189,2616,-452,-70
8.191,2624,-286,96
8.194,2628,-94,234
8.196,2634,116,328
8.199,2638,294,372
8.201,2630,492,350
8.203,2606,686,270
8.205,2568,844,168
8.208,2528,982,28
8.210,2464,1094,-82
8.213,2404,1158,-210
8.216,2350,1208,-266
8.218,2266,1236,-324
8.221,2174,1236,-318
8.223,2054,1222,-308
8.226,1956,1170,-268
8.228,1836,1136,-260
8.231,1708,1072,-246
8.233,1610,1038,-248
8.236,1506,998,-254
8.239,1428,966,-254
8.241,1380,932,-270
8.244,1358,882,-296
8.245,1352,834,-274
8.248,1368,788,-250
8.250,1404,748,-190
8.253,1454,672,-130
8.255,1520,622,-52
8.258,1588,548,30
8.260,1686,492,118
8.263,1784,450,212
8.266,1878,390,284
8.268,1978,344,378
8.271,2020,286,446
8.273,2032,222,498
8.276,1968,162,508
8.278,1848,72,520
8.281,1728,-16,512
8.283,1572,-130,458
8.285,1432,-246,418
8.288,1308,-358,360
8.290,1204,-478,312
8.293,1112,-572,276
8.295,1016,-664,296
8.298,926,-696,376
8.300,744,-784,414
8.303,496,-926,360
8.305,184,-1042,282
8.308,-96,-1084,266
8.310,-292,-1070,324
8.313,-446,-1030,460
8.316,-548,-974,580
8.318,-656,-884,642
8.321,-740,-782,670
8.323,-794,-712,652
8.325,-842,-660,642
8.327,-842,-628,628
8.330,-836,-626,602
8.332,-796,-606,618
8.335,-778,-568,640
8.337,-758,-512,658
8.340,-760,-428,656
8.343,-756,-332,658
8.345,-748,-242,634
8.348,-714,-184,584
8.350,-648,-148,568
8.353,-578,-146,526
8.355,-486,-170,490
8.358,-380,-216,448
8.360,-268,-272,386
8.363,-152,-320,324
8.366,-36,-378,274
8.367,66,-416,232
8.370,166,-442,186
8.372,264,-496,176
8.375,368,-518,164
8.377,460,-542,146
8.380,540,-556,164
8.382,612,-554,174
8.385,702,-566,210
8.387,764,-552,232
8.390,826,-562,240
8.393,894,-558,188
8.395,922,-580,128
8.398,956,-594,74
8.400,950,-630,-2
8.403,952,-684,-78
8.405,912,-768,-112
8.407,908,-864,-130
8.409,886,-972,-78
8.412,868,-1014,-2
8.415,862,-1048,100
8.417,818,-1052,234
8.420,764,-1036,300
8.422,682,-996,328
8.425,582,-948,348
8.427,502,-916,314
8.430,414,-912,300
8.432,376,-940,266
8.435,346,-990,226
8.437,336,-1110,190
8.440,336,-1236,172
8.443,346,-1364,132
8.445,374,-1488,138
8.447,414,-1676,166
8.449,498,-1872,176
8.452,598,-2072,148
8.454,732,-2256,174
8.457,892,-2372,232
8.459,1044,-2476,306
8.462,1200,-2506,426
8.465,1340,-2542,514
8.467,1490,-2616,680
8.470,1652,-2750,838
8.472,1850,-2918,1062
8.475,2088,-3054,1256
8.477,2376,-3146,1382
8.480,2678,-3256,1520
8.482,2920,-3360,1606
8.485,3084,-3522,1602
8.487,3118,-3668,1518
8.489,3086,-3686,1248
8.492,2970,-3508,700
8.494,2750,-3120,112
8.497,2462,-2670,-340
8.499,2082,-2288,-612
8.502,1636,-2198,-410
8.504,1284,-2540,148
8.507,1100,-3174,676
8.509,1070,-3788,972
8.512,1248,-4350,1158
8.514,1580,-5016,1280
8.517,1836,-5608,1210
8.520,1930,-5812,980
8.522,1572,-5600,830
8.525,868,-5132,722
8.527,258,-4414,588
8.529,-146,-3716,490
8.531,-412,-3134,472
8.534,-632,-2616,482
8.536,-810,-2208,458
8.539,-938,-1900,468
8.542,-998,-1756,522
8.544,-962,-1702,594
8.547,-876,-1740,744
8.549,-730,-1840,882
8.552,-552,-1948,1002
8.554,-358,-2044,1088
8.557,-168,-2082,1056
8.559,-16,-2068,906
8.562,120,-2048,584
8.564,474,-2014,292
8.567,588,-1630,444
8.569,436,-1606,682
8.571,138,-1994,1074
8.574,42,-1776,1500
8.576,242,-1338,1846
8.579,724,-1064,1760
8.581,1456,-726,1256
8.584,2262,-488,262
8.586,3228,-308,-686
8.589,5046,-190,-1552
8.592,8296,26,-1938
8.594,12034,276,-1274
8.597,13426,-1538,-1044
8.599,8470,-2160,612
8.602,3892,-3462,3486
8.604,1822,-3990,4548
8.607,1124,-2158,3478
8.609,554,-636,1572
8.611,-492,-1334,-166
8.613,-1622,-3138,-1444
8.616,-2258,-4788,-1596
8.619,-2334,-5648,-1044
8.621,-2594,-5114,352
8.624,-3962,-3444,714
8.626,-5216,-2106,-1030
8.629,-4870,-1584,-2506
8.631,-3478,-1308,-1768
8.634,-2158,-1216,-30
8.636,-1488,-1352,1166
8.639,-1024,-1662,1506
8.642,-426,-2050,1336
8.644,182,-2102,1014
8.647,556,-1888,864
8.649,808,-1734,992
8.651,1004,-1732,942
8.653,1152,-1802,934
8.656,1356,-1926,1216
8.658,1660,-2086,1364
8.661,2028,-2208,1166
8.663,2402,-2164,710
8.666,2742,-2150,416
8.669,3028,-2288,354
8.671,3090,-2352,374
8.674,2794,-2318,552
8.676,2292,-2236,882
8.679,1820,-2064,1104
8.681,1472,-1836,1074
8.684,1256,-1606,912
8.686,1158,-1428,852
8.689,1132,-1376,924
8.691,1218,-1388,1056
8.693,1376,-1454,1124
8.696,1672,-1514,1136
8.698,2096,-1546,1082
8.701,2670,-1520,992
8.703,3364,-1410,788
8.706,4058,-1282,520
8.708,4554,-1174,250
8.711,4676,-1064,70
8.713,4496,-886,112
8.716,4212,-688,186
8.719,3966,-482,128
8.721,3818,-330,48
8.724,3730,-288,-110
8.726,3712,-268,-212
8.729,3724,-258,-200
8.731,3722,-286,-166
8.733,3742,-322,-172
8.735,3806,-382,-186
8.738,3910,-346,-256
8.740,3954,-276,-360
8.743,3942,-176,-410
8.746,3854,-90,-454
8.748,3754,-56,-452
8.751,3658,14,-434
8.753,3558,116,-436
8.756,3428,276,-502
8.758,3272,444,-608
8.761,3064,574,-730
8.763,2864,686,-778
8.766,2712,804,-772
8.769,2572,1036,-700
8.771,2362,1282,-488
8.773,2100,1510,-218
8.775,1848,1644,82
8.778,1626,1712,318
8.780,1482,1806,508
8.783,1424,1918,534
8.785,1458,2122,510
8.788,1580,2344,536
8.790,1762,2640,614
8.793,1964,2952,680
8.796,2156,3238,676
8.798,2294,3528,630
8.801,2324,3620,658
8.803,2266,3582,734
8.806,2070,3420,874
8.808,1794,3274,998
8.811,1418,3230,1004
8.813,1060,3172,852
8.815,932,2934,500
8.818,820,2414,272
8.820,698,1878,384
8.823,648,1440,546
8.825,724,1072,606
8.828,840,794,616
8.830,946,524,666
8.833,1072,282,736
8.835,1236,80,728
8.838,1450,-70,634
8.840,1708,-190,482
8.843,1970,-326,298
8.846,2266,-458,108
8.848,2564,-612,-148
8.851,2856,-780,-422
8.853,3098,-986,-724
8.855,3236,-1120,-910
8.857,3202,-1122,-900
8.860,3106,-1050,-796
8.862,3002,-954,-666
8.865,2864,-840,-530
8.867,2738,-702,-380
8.870,2632,-558,-208
8.873,2562,-418,-4
8.875,2516,-222,160
8.878,2472,-42,294
8.880,2456,180,400
8.883,2438,362,448
8.885,2420,558,430
8.888,2362,734,344
8.890,2316,910,240
8.893,2240,1038,120
8.895,2168,1134,0
8.897,2102,1180,-72
8.900,2048,1190,-166
8.902,1988,1156,-214
8.905,1926,1122,-256
8.907,1848,1058,-286
8.910,1770,986,-308
8.912,1688,884,-316
8.915,1600,772,-298
8.917,1514,660,-278
8.920,1444,590,-254
8.923,1334,544,-226
8.925,1260,518,-206
8.928,1184,504,-176
8.930,1130,506,-144
8.933,1100,514,-100
8.935,1104,530,-66
8.937,1118,546,-32
8.939,1162,568,6
8.942,1216,598,60
8.945,1288,640,120
8.947,1380,656,192
8.950,1488,688,244
8.952,1596,694,310
8.955,1716,690,348
8.957,1824,684,404
8.960,1928,660,432
8.962,1984,620,422
8.965,1948,540,414
8.967,1848,454,390
8.970,1688,330,348
8.973,1518,190,292
8.975,1342,36,266
8.977,1196,-130,238
8.979,1072,-266,172
8.982,964,-414,106
8.984,872,-544,118
8.987,764,-658,112
8.989,688,-762,206
8.992,604,-812,356
8.994,476,-916,448
8.999,262,-1026,506
9.001,-4,-1140,502
9.003,-222,-1196,492
9.006,-408,-1226,486
9.008,-536,-1212,472
9.011,-672,-1148,448
9.013,-780,-1078,392
9.016,-888,-1006,366
9.018,-964,-964,338
9.021,-1006,-914,330
9.024,-1040,-908,346
9.026,-1036,-872,370
9.029,-1036,-834,378
9.031,-1032,-780,402
9.034,-1020,-702,390
9.036,-1020,-600,384
9.039,-994,-486,392
9.040,-960,-386,356
9.043,-892,-314,338
9.045,-806,-270,338
9.048,-706,-258,324
9.051,-572,-258,300
9.053,-458,-248,262
9.056,-320,-260,242
9.058,-208,-244,190
9.061,-110,-248,154
9.063,-6,-248,144
9.066,80,-250,96
9.068,170,-262,102
9.071,236,-268,106
9.074,304,-268,142
9.076,372,-260,154
9.079,440,-258,200
9.081,508,-224,256
9.083,560,-206,294
9.085,642,-186,276
9.088,696,-232,228
9.090,744,-294,134
9.093,774,-354,30
9.095,782,-388,-80
9.098,770,-378,-160
9.101,758,-408,-190
9.103,768,-446,-138
9.106,772,-490,-14
9.108,782,-518,86
9.111,792,-562,176
9.113,790,-572,216
9.116,786,-580,236
9.118,746,-566,250
9.121,708,-536,270
9.123,660,-482,254
9.125,634,-468,222
9.128,624,-448,150
9.130,642,-490,78
9.133,688,-528,22
9.135,746,-628,-10
9.138,818,-726,-26
9.140,898,-858,-46
9.143,1026,-1012,-26
9.145,1160,-1198,2
9.148,1320,-1398,50
9.151,1512,-1610,134
9.153,1696,-1810,178
9.156,1878,-1988,228
9.162,2338,-2420,304
9.165,2464,-2608,400
9.167,2606,-2822,604
9.170,2742,-3054,836
9.172,2892,-3302,1054
9.175,2948,-3560,1252
9.178,2932,-3752,1446
9.180,2866,-3930,1508
9.183,2778,-4044,1422
9.185,2658,-4084,1240
9.188,2526,-4038,898
9.190,2352,-3846,414
9.193,2144,-3468,-150
9.195,1902,-2950,-684
9.198,1660,-2466,-942
9.201,1430,-2148,-822
9.203,1238,-2126,-338
9.205,1120,-2406,292
9.207,1112,-2820,780
9.210,1228,-3172,1070
9.212,1434,-3440,1186
9.215,1602,-3774,1126
9.217,1578,-4162,970
9.220,1408,-4350,768
9.222,1114,-4310,646
9.225,720,-4088,618
9.228,332,-3726,664
9.230,-22,-3292,688
9.233,-350,-2886,640
9.235,-660,-2482,544
9.238,-904,-2150,446
9.240,-1072,-1906,326
9.243,-1136,-1796,254
9.244,-1094,-1806,250
9.247,-994,-1910,336
9.250,-826,-2042,492
9.252,-630,-2216,640
9.255,-388,-2358,742
9.257,-156,-2452,746
9.260,38,-2518,618
9.262,234,-2552,360
9.265,528,-2594,100
9.267,788,-2274,270
9.270,694,-2218,634
9.272,392,-2446,1158
9.275,274,-2170,1490
9.278,468,-1716,1664
9.280,910,-1472,1636
9.283,1518,-1132,1276
9.284,2096,-782,606
9.287,2674,-554,-88
9.289,3604,-506,-374
9.292,5794,-310,-708
9.294,9458,906,-478
9.297,14144,-496,288
9.300,11252,-2398,1692
9.302,5698,-3322,4494
9.305,3028,-2474,5454
9.307,1298,-644,3602
9.310,216,102,1422
9.312,-644,-1106,-276
9.315,-1748,-2692,-1390
9.317,-2904,-3978,-1820
9.320,-3360,-5970,-1400
9.322,-3086,-6432,-244
9.325,-4098,-4380,-128
9.327,-5488,-2370,-952
9.329,-4814,-1884,-1794
9.332,-3146,-1634,-1074
9.334,-1866,-1470,290
9.337,-1256,-1584,1192
9.339,-886,-1790,1432
9.342,-374,-1954,1176
9.344,258,-1934,558
9.347,638,-1800,164
9.349,840,-1732,312
9.352,988,-1744,428
9.355,1104,-1778,620
9.357,1296,-1774,1030
9.360,1568,-1888,1214
9.362,1894,-1964,1066
9.365,2208,-1952,772
9.366,2552,-1880,608
9.369,2876,-1866,630
9.371,3106,-1900,636
9.374,3064,-1920,726
9.377,2706,-1862,896
9.379,2244,-1724,1054
9.382,1826,-1542,1060
9.384,1514,-1424,990
9.387,1328,-1284,928
9.389,1256,-1160,952
9.392,1272,-1162,1006
9.394,1366,-1254,1080
9.397,1556,-1376,1106
9.399,1850,-1526,1034
9.402,2290,-1584,860
9.405,2816,-1536,668
9.406,3418,-1486,568
9.409,4038,-1448,430
9.411,4476,-1414,154
9.414,4618,-1294,-42
9.416,4496,-1048,-40
9.419,4256,-738,48
9.421,4010,-488,98
9.424,3824,-358,86
9.427,3718,-300,56
9.429,3708,-250,14
9.432,3736,-202,-4
9.434,3782,-162,-22
9.437,3822,-134,-92
9.439,3854,-70,-220
9.442,3854,32,-344
9.444,3814,170,-446
9.447,3680,334,-490
9.448,3514,416,-520
9.451,3340,524,-510
9.454,3164,592,-512
9.456,3022,626,-548
9.459,2892,716,-614
9.461,2760,772,-660
9.464,2612,800,-626
9.466,2564,808,-618
9.469,2572,894,-620
9.471,2572,1036,-556
9.474,2556,1216,-468
9.477,2484,1424,-356
9.479,2372,1620,-216
9.482,2270,1782,-40
9.484,2160,1854,92
9.487,2082,1904,254
9.488,2026,1968,382
9.491,2014,2028,472
9.493,2014,2178,532
9.496,2020,2344,558
9.498,2042,2514,546
9.501,2024,2614,528
9.504,1990,2706,498
9.506,1920,2790,502
9.509,1830,2830,552
9.511,1658,2890,632
9.514,1418,2982,636
9.516,1192,3066,472
9.519,1156,2880,158
9.521,1168,2518,-64
9.524,1068,2140,88
9.526,976,1770,380
9.528,994,1412,578
9.531,1052,1082,716
9.533,1156,776,854
9.536,1260,500,932
9.538,1386,304,972
9.541,1542,166,892
9.543,1736,60,728
9.546,1952,-2,532
9.548,2172,-64,282
9.551,2436,-110,10
9.554,2670,-146,-276
9.556,2886,-244,-556
9.559,3060,-448,-826
9.561,3098,-714,-982
9.564,3030,-856,-948
9.566,2894,-892,-794
9.569,2802,-850,-648
9.570,2696,-782,-510
9.573,2600,-684,-356
9.575,2532,-542,-218
9.578,2472,-388,-74
9.581,2428,-218,50
9.583,2402,-24,170
9.586,2394,190,240
9.588,2374,398,270
9.591,2370,596,276
9.593,2340,788,256
9.596,2310,946,192
9.598,2276,1076,106
9.601,2204,1178,32
9.604,2146,1218,-42
9.606,2070,1238,-136
9.609,2004,1204,-194
9.610,1922,1146,-244
9.613,1812,1042,-290
9.615,1712,904,-332
9.618,1614,754,-344
9.620,1516,642,-302
9.623,1404,576,-264
9.625,1322,540,-230
9.628,1250,558,-174
9.631,1170,578,-148
9.633,1126,616,-116
9.636,1086,636,-118
9.638,1084,654,-118
9.641,1088,674,-98
9.643,1114,686,-86
9.646,1142,690,-40
9.648,1198,686,20
9.650,1260,668,82
9.653,1348,636,158
9.655,1448,580,244
9.658,1546,532,292
9.660,1620,476,336
9.663,1680,416,392
9.665,1682,330,390
9.668,1640,234,398
9.670,1538,100,376
9.673,1406,-44,358
9.675,1268,-202,298
9.678,1122,-378,230
9.681,1004,-542,176
9.683,894,-718,146
9.686,806,-870,138
9.688,706,-1018,208
9.691,618,-1120,330
9.692,548,-1144,452
9.695,398,-1164,506
9.697,164,-1204,526
9.700,-94,-1254,498
9.702,-296,-1276,476
9.705,-466,-1258,450
9.708,-596,-1216,434
9.710,-718,-1132,400
9.713,-828,-1048,370
9.715,-890,-994,370
9.718,-944,-932,360
9.720,-956,-906,384
9.723,-954,-872,400
9.725,-926,-832,436
9.728,-892,-774,432
9.731,-844,-718,436
9.732,-792,-638,428
9.735,-774,-534,428
9.737,-730,-428,430
9.740,-692,-314,416
9.742,-636,-240,404
9.745,-560,-162,410
9.747,-482,-122,372
9.750,-388,-108,358
9.752,-300,-104,342
9.949,-646,-1698,914
9.951,-434,-1826,1004
9.954,-218,-1960,1034
9.957,-28,-2044,968
9.959,114,-2078,736
9.962,238,-2146,386
9.964,346,-2244,14
9.967,460,-2422,-340
9.969,526,-2634,-590
9.972,576,-2858,-668
9.974,816,-2556,-150
9.976,790,-1818,620
9.978,512,-1306,1044
9.981,456,-572,1248
9.984,642,226,1390
9.986,934,786,1278
9.989,1316,1038,482
9.991,1654,1120,-70
9.994,1878,886,-78
9.998,3316,858,-290
10.000,9864,2792,-1308
10.002,16260,7100,702
10.005,14018,-1228,4176
10.008,5930,-10828,7144
10.010,3966,-8398,5678
10.013,2080,-968,2744
10.015,832,386,-418
10.018,-654,-2344,-3148
10.020,-1888,-3516,-4860
10.023,-2536,-5324,-4214
10.025,-2286,-7278,-2140
10.028,-3038,-7442,-1764
10.030,-5526,-5990,-986
10.033,-5494,-3700,-376
10.036,-3456,-1622,1370
10.038,-1968,-434,2056
10.040,-1582,-310,1764
10.042,-1394,-908,1426
10.045,-1058,-1320,1060
10.047,-492,-1346,782
10.050,88,-1178,548
10.052,440,-988,608
10.055,594,-984,754
10.057,652,-1130,822
10.060,694,-1266,1126
10.063,870,-1422,1498
10.065,1156,-1540,1450
10.068,1486,-1550,970
10.070,1804,-1514,568
10.073,2066,-1534,612
10.075,2362,-1598,966
10.078,2682,-1638,1394
10.080,2962,-1752,1672
10.082,3068,-1920,1736
10.085,2942,-2046,1546
10.087,2618,-2030,1226
10.090,2250,-1834,954
10.092,1986,-1588,854
10.095,1884,-1410,890
10.097,1942,-1394,946
10.100,2164,-1400,846
10.102,2508,-1360,646
10.105,2948,-1332,476
10.107,3430,-1304,324
10.110,3864,-1226,124
10.113,4126,-1046,34
10.115,4166,-872,26
10.118,4078,-694,28
10.120,3908,-528,-28
10.122,3762,-414,-112
10.124,3682,-332,-216
10.127,3650,-288,-286
10.129,3656,-244,-306
10.132,3664,-222,-328
10.135,3656,-192,-342
10.137,3642,-148,-398
10.140,3636,-94,-454
10.142,3582,-18,-504
10.145,3500,38,-518
10.147,3394,86,-494
10.150,3296,132,-484
10.152,3220,174,-456
10.155,3166,288,-456
10.157,3084,390,-478
10.160,2994,506,-530
10.162,2838,586,-574
10.164,2688,628,-518
10.167,2582,646,-478
10.169,2548,748,-428
10.172,2494,978,-340
10.174,2372,1226,-192
10.177,2252,1464,2
10.179,2088,1736,74
10.182,1920,1898,246
10.185,1764,2038,388
10.187,1656,2144,498
10.190,1608,2240,540
10.192,1638,2374,562
10.195,1752,2584,594
10.197,1882,2828,660
10.200,2004,3050,764
10.202,2094,3236,784
10.204,2152,3360,800
10.206,2140,3412,758
10.209,2002,3314,746
10.212,1746,3188,778
10.214,1372,3110,702
10.217,1176,2888,418
10.219,1154,2370,92
10.222,1026,1820,114
10.224,894,1376,374
10.227,890,1020,538
10.229,990,758,596
10.232,1100,536,654
10.234,1216,300,764
10.237,1358,88,802
10.240,1564,-76,738
10.242,1802,-204,566
10.244,2062,-332,348
10.246,2388,-480,114
10.249,2714,-648,-180
10.251,3044,-820,-492
10.254,3296,-1002,-796
10.256,3402,-1112,-976
10.259,3354,-1040,-940
10.262,3238,-914,-818
10.264,3114,-780,-638
10.267,3000,-672,-490
10.269,2916,-534,-314
10.272,2860,-402,-102
10.274,2816,-250,118
10.277,2804,-68,358
10.279,2760,140,572
10.282,2726,356,692
10.284,2668,592,722
10.286,2606,822,622
10.289,2534,1036,452
10.291,2442,1232,254
10.294,2336,1348,40
10.296,2220,1408,-158
10.299,2094,1430,-274
10.301,1976,1440,-350
10.304,1858,1420,-368
10.306,1742,1360,-328
10.309,1604,1276,-290
10.312,1510,1194,-262
10.314,1406,1122,-238
10.317,1316,1068,-232
10.319,1224,1028,-234
10.322,1134,990,-256
10.324,1074,968,-290
10.326,1046,932,-306
10.328,1044,900,-308
10.331,1058,860,-288
10.333,1110,820,-248
10.336,1180,800,-156
10.339,1252,740,-76
10.341,1340,696,28
10.344,1456,654,142
10.346,1578,628,242
10.349,1692,596,318
10.351,1792,544,398
10.354,1872,506,462
10.356,1904,438,506
10.359,1896,348,508
10.362,1816,252,458
10.364,1700,144,470
10.366,1554,16,432
10.368,1404,-136,390
10.371,1294,-274,362
10.373,1182,-434,286
10.376,1106,-594,256
10.378,1018,-726,242
10.381,952,-832,286
10.383,874,-930,366
10.386,720,-1096,418
10.389,484,-1226,362
10.391,192,-1242,286
10.394,-50,-1176,256
10.396,-230,-1130,344
10.399,-354,-1074,426
10.401,-460,-1014,496
10.404,-558,-936,514
10.406,-642,-860,518
10.408,-708,-808,508
10.410,-742,-810,492
10.413,-744,-818,506
10.416,-724,-834,494
10.418,-686,-820,520
10.421,-640,-782,540
10.423,-596,-708,530
10.426,-576,-574,542
10.428,-574,-440,542
10.431,-568,-268,530
10.433,-546,-156,524
10.436,-502,-78,500
10.439,-440,-44,480
10.441,-350,-40,470
10.444,-264,-72,466
10.446,-160,-114,446
10.448,-58,-178,420
10.450,30,-228,384
10.453,124,-256,358
10.455,198,-272,368
10.458,256,-276,410
10.460,330,-274,414
10.463,384,-336,416
10.466,444,-422,400
10.468,506,-552,332
10.471,576,-694,250
10.473,622,-786,132
10.476,678,-852,44
10.478,700,-874,10
10.481,718,-856,30
10.483,744,-828,88
10.486,754,-788,156
10.488,764,-762,216
10.490,768,-720,226
10.493,764,-692,214
10.495,740,-650,190
10.498,692,-646,198
10.500,654,-624,176
10.503,596,-620,148
10.505,544,-616,124
10.508,472,-604,80
10.510,416,-614,50
10.513,380,-574,32
10.516,380,-598,32
10.518,402,-604,70
10.521,446,-668,110
10.523,522,-710,136
10.526,592,-768,114
10.528,712,-828,72
10.530,818,-874,-2
10.532,960,-980,-66
10.535,1116,-1116,-36
10.538,1300,-1282,62
10.540,1558,-1518,314
10.543,1828,-1792,542
10.545,2122,-2064,658
10.548,2412,-2302,702
10.550,2692,-2526,708
10.553,2976,-2708,806
10.555,3220,-2846,986
10.558,3490,-2916,1172
10.560,3700,-3064,1484
10.563,3732,-3344,1864
10.566,3612,-3590,2182
10.568,3402,-3750,2306
10.570,3152,-3880,2166
10.572,2864,-3982,1690
10.575,2530,-3896,866
10.577,2158,-3524,-210
10.580,1752,-2980,-1240
10.582,1312,-2432,-1954
10.585,842,-2034,-1860
10.587,576,-2232,-726
10.590,558,-2976,622
10.593,704,-3710,1376
10.595,1086,-4036,1644
10.598,1824,-4258,1548
10.600,2426,-4976,1302
10.603,2636,-5392,1118
10.605,2484,-5454,986
10.608,1782,-5338,1044
10.610,916,-4988,1178
10.612,232,-4316,1168
10.615,-246,-3592,1036
10.617,-610,-2888,896
10.620,-942,-2254,702
10.622,-1188,-1744,494
10.625,-1318,-1402,328
10.627,-1352,-1268,298
10.630,-1274,-1304,376
10.632,-1146,-1516,548
10.635,-938,-1810,826
10.637,-704,-2116,1094
10.640,-444,-2324,1248
10.643,-200,-2426,1230
10.645,-24,-2452,1088
10.648,118,-2422,894
10.650,388,-2368,720
10.652,724,-1898,924
10.654,798,-1586,890
10.657,786,-1768,760
10.659,804,-1700,818
10.662,1034,-1270,686
10.665,1484,-864,714
10.667,2234,-602,578
10.670,3066,-148,-320
10.672,3818,522,-1490
10.675,4630,576,-2174
10.677,6160,-226,-1922
10.680,8358,60,-1336
10.682,10336,1598,-868
10.685,9910,-1084,1268
10.687,6716,-6644,5530
10.690,4682,-7432,6680
10.692,3652,-2394,4586
10.694,2200,1342,1568
10.697,756,924,-1136
10.699,-978,-408,-2874
10.702,-1956,-1786,-3116
10.704,-2526,-3772,-1290
10.707,-3136,-5054,-94
10.709,-4348,-5748,-156
10.712,-6384,-4182,-654
10.715,-6498,-2514,-1036
10.717,-4442,-1674,-1144
10.720,-2524,-1246,-434
10.722,-1696,-1556,676
10.725,-1408,-2072,1434
10.727,-998,-2438,1578
10.730,-236,-2338,1138
10.732,458,-1888,496
10.734,810,-1552,526
10.736,1034,-1532,906
10.739,1260,-1664,1102
10.742,1418,-1766,1398
10.744,1640,-1894,1680
10.747,2006,-2158,1642
10.749,2412,-2412,1354
10.752,2848,-2586,1026
10.754,3280,-2674,704
10.757,3554,-2688,430
10.759,3378,-2448,322
10.762,2786,-2060,466
10.764,2160,-1726,756
10.767,1662,-1508,926
10.770,1362,-1358,876
10.772,1224,-1228,806
10.774,1196,-1200,842
10.776,1256,-1150,822
10.779,1396,-1124,918
10.781,1668,-1172,968
10.784,2034,-1158,952
10.786,2556,-1068,894
10.789,3184,-976,804
10.792,3884,-890,570
10.794,4484,-770,248
10.797,4686,-584,28
10.799,4494,-332,4
10.802,4078,-76,58
10.804,3702,30,110
10.807,3480,20,66
10.809,3354,-24,-26
10.812,3298,-76,-134
10.813,3262,-106,-212
10.816,3280,-132,-222
10.819,3288,-140,-202
10.821,3336,-182,-194
10.824,3424,-212,-238
10.826,3484,-174,-330
10.829,3448,-114,-380
10.831,3338,-78,-412
10.834,3196,-42,-398
10.836,3038,14,-368
10.839,2888,70,-384
10.842,2778,132,-424
10.844,2666,196,-508
10.847,2568,282,-564
10.849,2434,332,-564
10.852,2324,300,-512
10.854,2296,354,-408
10.856,2278,528,-266
10.858,2220,764,-36
10.861,2160,1048,164
10.863,2112,1300,324
10.866,2056,1570,444
10.869,2032,1806,534
10.871,2042,2056,588
10.874,2078,2316,570
10.876,2162,2612,564
10.879,2246,2930,560
10.881,2314,3202,542
10.884,2340,3412,452
10.886,2318,3552,286
10.889,2220,3552,184
10.892,2044,3442,198
10.894,1816,3292,370
10.896,1512,3134,610
10.898,1166,2996,748
10.901,802,2934,750
10.903,592,2784,540
10.906,580,2460,246
10.908,548,2030,184
10.911,542,1554,348
10.913,648,1132,516
10.916,814,820,586
10.919,994,620,642
10.921,1146,436,702
10.924,1318,266,756
10.926,1496,124,746
10.929,1722,12,660
10.931,1970,-58,502
10.934,2238,-136,272
10.935,2524,-238,36
10.938,2788,-358,-238
10.940,3048,-496,-536
10.943,3256,-724,-846
10.946,3330,-956,-1016
10.948,3250,-1046,-970
10.951,3104,-1092,-818
10.953,2976,-1064,-638
10.956,2848,-988,-460
10.958,2730,-842,-280
10.961,2632,-664,-88
10.963,2556,-472,112
10.966,2514,-238,306
10.969,2494,-12,446
10.971,2488,216,560
10.974,2458,438,612
10.976,2438,676,572
10.978,2386,916,474
10.980,2302,1132,320
10.983,2228,1314,150
10.985,2114,1418,-26
10.988,2042,1462,-138
10.990,1940,1448,-254
10.993,1852,1400,-304
10.998,1754,1336,-364
11.000,1642,1234,-392
11.002,1538,1114,-366
11.004,1436,996,-314
11.007,1350,876,-254
11.009,1278,814,-200
11.012,1214,784,-150
11.014,1150,794,-102
11.017,1098,814,-88
11.019,1074,826,-76
11.022,1046,840,-112
11.025,1054,840,-134
11.027,1064,850,-134
11.030,1088,850,-108
11.032,1134,846,-54
11.035,1178,836,4
11.037,1254,802,84
11.040,1318,758,146
11.041,1398,692,198
11.044,1462,644,240
11.046,1540,566,288
11.049,1602,516,320
11.052,1626,436,356
11.054,1614,332,380
11.057,1560,218,390
11.059,1498,80,398
11.062,1406,-60,386
11.064,1302,-228,358
11.067,1232,-368,336
11.069,1140,-540,292
11.072,1058,-700,268
11.075,992,-852,258
11.077,912,-998,262
11.080,858,-1094,336
11.081,788,-1170,440
11.084,662,-1216,538
11.086,422,-1272,560
11.089,144,-1282,544
11.091,-118,-1236,526
11.094,-316,-1174,520
11.096,-462,-1092,510
11.099,-600,-1008,452
11.102,-704,-922,426
11.104,-780,-850,388
11.107,-832,-826,378
11.109,-862,-828,392
11.112,-856,-862,430
11.114,-826,-880,494
11.117,-792,-880,526
11.119,-756,-820,558
11.122,-728,-726,564
11.124,-702,-572,562
11.126,-666,-400,560
11.129,-628,-220,526
11.131,-554,-80,502
11.134,-472,16,458
11.136,-354,70,430
11.139,-238,90,432
11.141,-120,88,436
11.144,-2,68,440
11.146,104,16,428
11.149,204,-4,404
11.152,272,-48,390
11.154,336,-70,338
11.157,404,-96,338
11.159,462,-118,344
11.162,502,-124,364
11.163,538,-182,370
11.166,582,-298,326
11.168,642,-450,260
11.171,702,-638,148
11.174,756,-732,-4
11.176,772,-788,-110
11.179,776,-802,-176
11.181,764,-806,-184
11.184,778,-822,-98
11.186,790,-802,-4
11.189,814,-782,106
11.191,818,-768,178
11.194,802,-762,214
11.196,796,-764,214
11.199,772,-762,232
11.202,760,-744,266
11.203,732,-720,314
11.206,722,-670,330
11.208,734,-644,306
11.211,754,-664,290
11.213,804,-674,248
11.216,870,-738,166
11.218,980,-840,104
11.221,1078,-994,72
11.224,1190,-1214,74
11.226,1308,-1464,140
11.229,1442,-1748,266
11.231,1606,-2022,408
11.234,1798,-2292,510
11.236,1990,-2590,512
11.239,2128,-2894,504
11.241,2202,-3150,504
11.244,2276,-3316,600
11.245,2318,-3400,706
11.248,2344,-3436,852
11.251,2314,-3494,1092
11.253,2226,-3612,1248
11.256,2100,-3700,1524
11.258,2034,-3736,1614
11.261,2040,-3764,1516
11.263,2034,-3772,1236
11.266,2020,-3712,738
11.268,1974,-3508,104
11.271,1870,-3174,-660
11.273,1702,-2652,-1336
11.276,1420,-2116,-1614
11.279,1138,-1850,-1188
11.281,914,-2150,-268
11.284,862,-2876,540
11.285,986,-3508,862
11.288,1288,-3766,954
11.290,1796,-4016,904
11.293,2170,-4668,774
11.295,2322,-5096,642
11.298,2234,-5166,428
11.301,1672,-4962,356
11.303,880,-4510,390
11.306,316,-3848,320
11.308,14,-3198,172
11.311,-178,-2652,20
11.313,-346,-2168,-54
11.316,-520,-1750,-50
11.318,-676,-1394,48
11.321,-778,-1114,220
11.323,-842,-944,370
11.325,-814,-886,512
11.328,-756,-946,560
11.330,-660,-1062,524
11.333,-562,-1212,402
11.335,-484,-1374,260
11.338,-402,-1516,146
11.340,-342,-1648,14
11.343,64,-1784,-176
11.345,450,-1672,100
11.348,194,-1550,632
11.351,-128,-1888,990
11.353,-374,-1936,1514
11.356,-316,-1380,1702
11.358,-18,-994,1746
11.361,464,-700,1920
11.363,1032,-426,1412
11.366,1680,-392,412
11.367,2408,-510,-208
11.370,4602,-444,-936
11.372,9896,112,-1194
11.375,16054,538,-160
11.378,14124,-3678,1908
11.380,6726,-6890,3996
11.383,3576,-5724,5338
11.385,1128,-1540,4364
11.388,82,-120,1394
11.390,-910,-2060,-1004
11.393,-2196,-3726,-2320
11.395,-2986,-4818,-2846
11.398,-2836,-6824,-1690
11.400,-2434,-6332,-1696
11.403,-3972,-4674,-1664
11.406,-5256,-3154,-1366
11.407,-3898,-2202,-990
11.410,-2026,-1344,-30
11.412,-1168,-878,726
11.415,-1008,-1036,1134
11.417,-896,-1428,1114
11.420,-604,-1594,782
11.422,-84,-1556,412
11.425,386,-1240,-36
11.428,594,-1036,-156
11.430,786,-1150,76
11.433,966,-1364,432
11.435,1094,-1560,984
11.438,1276,-1656,1388
11.440,1494,-1728,1336
11.443,1726,-1728,998
11.445,1976,-1664,620
11.447,2264,-1642,516
11.449,2620,-1686,602
11.452,2888,-1778,698
11.455,2918,-1882,908
11.457,2680,-1944,1072
11.460,2338,-1908,1144
11.462,1964,-1858,1114
11.465,1688,-1774,1036
11.467,1546,-1614,986
11.470,1498,-1466,932
11.472,1524,-1436,920
11.475,1608,-1540,930
11.478,1818,-1672,874
11.480,2182,-1706,788
11.483,2654,-1674,670
11.485,3228,-1578,574
11.488,3822,-1462,444
11.489,4286,-1320,280
11.492,4504,-1138,158
11.494,4498,-894,148
11.497,4340,-626,162
11.499,4140,-434,176
11.502,3950,-294,94
11.505,3808,-236,-30
11.507,3718,-194,-124
11.510,3642,-126,-162
11.512,3606,-96,-174
11.515,3618,-46,-214
11.517,3640,2,-266
11.520,3628,78,-300
11.522,3560,166,-354
11.525,3454,262,-368
11.528,3358,364,-344
11.529,3272,494,-332
11.532,3196,612,-310
11.534,3120,726,-336
11.537,3024,858,-416
11.539,2894,996,-518
11.542,2762,1096,-588
11.544,2640,1176,-602
11.547,2560,1262,-552
11.549,2498,1424,-426
11.552,2406,1602,-186
11.555,2322,1786,102
11.557,2230,1974,392
11.560,2148,2128,666
11.562,2092,2274,754
11.565,2052,2432,726
11.567,2028,2628,682
11.569,1984,2804,650
11.571,1940,2934,626
11.574,1866,3054,520
11.576,1812,3132,306
11.579,1728,3086,190
11.582,1648,2976,150
11.584,1570,2846,264
11.587,1428,2748,472
11.589,1256,2752,586
11.592,1016,2798,540
11.594,878,2750,304
11.597,872,2536,44
11.599,862,2144,-8
11.602,822,1686,260
11.605,808,1232,524
11.607,856,842,664
11.610,942,548,750
11.611,1036,274,836
11.614,1146,44,938
11.616,1284,-120,946
11.619,1478,-236,854
11.621,1692,-318,668
11.624,1942,-390,440
11.626,2216,-454,174
11.629,2476,-508,-110
11.632,2740,-556,-404
11.634,2958,-642,-700
11.637,3070,-780,-902
11.639,3048,-824,-950
11.642,2922,-802,-882
11.644,2762,-726,-760
11.647,2586,-648,-628
11.649,2448,-548,-478
11.651,2314,-458,-314
11.654,2208,-358,-156
11.656,2134,-222,4
11.659,2080,-88,136
11.661,2064,68,236
11.664,2050,246,254
11.666,2048,428,260
11.669,2048,602,216
11.671,2044,744,172
11.674,2038,866,102
11.676,2024,942,38
11.679,2022,1000,10
11.682,1992,1032,-12
11.684,1978,1058,-18
11.687,1924,1062,-62
11.689,1860,1048,-82
11.691,1786,1000,-90
11.693,1688,922,-136
11.696,1600,836,-150
11.698,1496,780,-176
11.701,1402,746,-174
11.704,1302,740,-166
11.706,1216,750,-166
11.709,1154,788,-116
11.711,1090,830,-110
11.714,1068,858,-114
11.716,1056,908,-100
11.719,1068,918,-70
11.721,1084,942,-24
11.724,1106,956,48
11.726,1160,962,94
11.729,1224,940,176
11.732,1292,908,232
11.733,1360,862,274
11.736,1430,792,318
11.738,1472,746,360
11.741,1498,652,362
11.743,1482,532,376
11.746,1410,380,362
11.748,1314,204,364
11.751,1222,6,332
11.753,1110,-200,296
11.756,1030,-422,260
11.759,944,-660,202
11.761,864,-886,162
11.764,786,-1120,162
11.766,724,-1334,208
11.769,658,-1500,264
11.771,548,-1580,282
11.773,342,-1620,284
11.775,84,-1596,276
11.778,-128,-1542,300
11.781,-270,-1464,334
11.783,-352,-1336,376
11.786,-430,-1180,406
11.788,-518,-1038,396
11.791,-580,-908,380
11.793,-642,-814,364
11.796,-668,-772,364
11.798,-678,-742,364
11.801,-656,-720,366
11.803,-598,-682,374
11.806,-556,-642,368
11.809,-482,-578,382
11.811,-426,-520,380
11.813,-364,-450,410
11.815,-306,-358,432
11.818,-248,-284,450
11.820,-184,-224,472
11.823,-116,-198,482
11.825,-40,-186,450
11.828,34,-188,410
11.831,106,-200,366
11.833,180,-228,330
11.836,240,-240,272
11.838,298,-262,222
11.841,356,-262,180
11.843,424,-268,174
11.846,484,-260,174
11.848,534,-272,182
11.851,612,-300,160
11.853,670,-376,126
11.855,734,-456,96
11.858,790,-518,16
11.860,858,-576,-6
11.863,908,-596,-24
11.865,964,-624,-2
11.868,1014,-622,62
11.870,1054,-620,124
11.873,1100,-620,196
11.875,1118,-644,206
11.878,1140,-638,210
11.881,1140,-646,152
11.883,1134,-670,104
11.886,1126,-718,88
11.888,1088,-738,80
11.891,1048,-784,74
11.893,1012,-810,58
11.895,974,-836,76
11.897,932,-858,102
11.900,894,-868,142
11.902,860,-904,174
11.905,864,-972,196
11.908,884,-1058,194
11.910,912,-1164,154
11.913,952,-1300,98
11.915,1028,-1430,38
11.918,1106,-1584,10
11.920,1248,-1770,42
11.923,1394,-1964,130
11.925,1578,-2138,208
11.928,1750,-2262,244
11.931,1880,-2358,256
11.933,2012,-2438,290
11.935,2094,-2578,390
11.937,2212,-2750,530
11.940,2320,-2948,706
11.942,2482,-3100,874
11.945,2638,-3204,1126
11.947,2752,-3298,1396
11.950,2782,-3446,1596
11.952,2674,-3562,1640
11.955,2522,-3586,1450
11.958,2318,-3520,1028
11.960,2120,-3322,436
11.963,1942,-2986,-192
11.965,1734,-2562,-614
11.968,1492,-2120,-662
11.970,1234,-1864,-288
11.973,1036,-2052,280
11.975,926,-2594,734
11.977,982,-3156,1000
11.979,1226,-3590,1192
11.982,1596,-4098,1240
11.985,1846,-4782,1196
11.987,1842,-5268,1050
11.990,1624,-5422,768
11.992,1134,-5302,574
11.995,498,-4992,520
11.999,-24,-4510,540
12.001,-394,-4010,566
12.003,-628,-3532,628
12.006,-824,-3084,616
12.009,-964,-2706,524
12.011,-1030,-2402,406
12.014,-1046,-2244,302
12.016,-1006,-2192,302
12.019,-892,-2198,412
12.021,-724,-2240,568
12.024,-512,-2222,732
12.026,-304,-2204,860
12.029,-116,-2154,842
12.031,2,-2114,678
12.034,90,-2094,406
12.037,140,-2110,82
12.039,224,-2202,-196
12.041,538,-2160,-146
12.043,566,-1742,328
12.046,396,-1604,854
12.048,192,-1132,1538
12.051,338,-352,1668
12.053,596,236,1214
12.056,990,614,790
12.059,1504,958,240
12.061,1974,1236,-374
12.064,2556,1120,-502
12.066,4992,588,-828
12.069,10592,1928,-1238
12.071,15636,5736,102
12.074,12958,606,2402
12.076,5632,-6506,6418
12.079,2696,-6966,6546
12.081,1466,-2988,4172
12.083,598,-834,1800
12.086,-320,-1692,-472
12.088,-1788,-2068,-3048
12.091,-3308,-4296,-4088
12.093,-3744,-7220,-2204
12.096,-3778,-6904,-1594
12.098,-5390,-5138,-1150
12.101,-5694,-3420,-1110
12.103,-3642,-2314,-862
12.106,-1704,-1592,14
12.109,-916,-1184,1036
12.111,-646,-1346,1754
12.114,-468,-1664,1688
12.116,-166,-1760,1108
12.119,296,-1566,532
12.121,660,-1380,262
12.123,906,-1310,376
12.125,1090,-1306,542
12.128,1206,-1398,714
12.130,1304,-1496,1058
12.133,1482,-1620,1282
12.136,1738,-1746,1166
12.138,2036,-1788,874
12.141,2328,-1728,558
12.143,2580,-1708,446
12.146,2770,-1776,488
12.148,2766,-1788,616
12.151,2554,-1790,814
12.153,2218,-1746,950
12.156,1896,-1712,932
12.158,1662,-1668,846
12.161,1524,-1556,750
12.163,1504,-1410,700
12.165,1568,-1346,710
12.168,1706,-1382,722
12.170,1994,-1454,706
12.173,2382,-1434,582
12.175,2836,-1406,436
12.178,3352,-1322,308
12.180,3854,-1248,140
12.183,4170,-1120,-8
12.186,4254,-936,-58
12.188,4158,-718,-22
12.191,3966,-456,12
12.193,3766,-292,40
12.196,3574,-228,-30
12.198,3458,-222,-120
12.201,3366,-210,-158
12.203,3306,-186,-166
12.205,3272,-184,-144
12.207,3246,-196,-174
12.210,3274,-184,-204
12.213,3286,-124,-240
12.215,3232,-38,-284
12.218,3132,46,-310
12.220,2990,130,-342
12.223,2812,180,-342
12.225,2650,236,-322
12.228,2532,280,-338
12.230,2428,320,-382
12.233,2332,340,-480
12.236,2270,388,-516
12.238,2208,442,-518
12.241,2172,466,-448
12.243,2180,536,-360
12.245,2186,642,-248
12.247,2178,776,-78
12.250,2132,908,82
12.252,2060,1028,262
12.255,2030,1202,372
12.257,2030,1382,456
12.260,2046,1612,506
12.263,2072,1870,514
12.265,2146,2140,566
12.268,2206,2444,632
12.270,2280,2748,728
12.273,2304,3008,734
12.275,2324,3240,646
12.278,2306,3428,488
12.280,2214,3520,314
12.283,2064,3464,254
12.285,1820,3306,364
12.287,1522,3130,550
12.290,1154,3012,620
12.292,828,2844,500
12.295,724,2556,246
12.297,714,2118,44
12.300,686,1588,108
12.302,680,1076,334
12.305,752,674,494
12.307,890,430,554
12.310,1012,236,608
12.313,1180,78,718
12.315,1348,-78,798
12.318,1580,-212,768
12.320,1850,-308,652
12.323,2146,-460,470
12.325,2474,-596,244
12.327,2822,-748,-38
12.329,3164,-892,-354
12.332,3466,-1048,-700
12.334,3606,-1148,-892
12.337,3552,-1102,-876
12.340,3376,-1016,-790
12.342,3166,-926,-646
12.345,2968,-808,-494
12.347,2778,-680,-316
12.350,2626,-518,-140
12.352,2506,-364,74
12.355,2412,-174,230
12.357,2338,26,350
12.360,2294,216,424
12.363,2232,384,444
12.365,2182,560,388
12.367,2128,740,316
12.369,2064,894,204
12.372,2004,1022,66
12.374,1936,1080,-56
12.377,1880,1096,-162
12.379,1822,1074,-252
12.382,1780,1024,-292
12.384,1732,956,-316
12.387,1674,864,-318
12.390,1616,780,-292
12.392,1552,678,-268
12.395,1516,566,-228
12.397,1464,482,-162
12.400,1406,418,-114
12.402,1362,404,-60
12.405,1310,398,-18
12.406,1280,402,6
12.409,1256,414,24
12.412,1256,408,48
12.414,1270,414,90
12.417,1312,400,124
12.419,1382,396,200
12.422,1458,394,250
12.424,1546,392,316
12.427,1634,368,376
12.429,1726,334,472
12.432,1778,290,558
12.434,1794,232,632
12.437,1766,174,700
12.440,1678,96,710
12.442,1560,10,692
12.445,1436,-46,620
12.447,1314,-112,546
12.449,1210,-146,456
12.451,1118,-178,328
12.454,1008,-216,250
12.456,922,-272,156
12.459,816,-368,142
12.462,736,-474,192
12.464,654,-582,308
12.467,616,-634,504
12.469,564,-656,704
12.472,490,-658,760
12.474,282,-728,696
12.477,46,-808,610
12.479,-180,-856,476
12.482,-336,-882,366
12.484,-462,-842,270
12.487,-570,-800,216
12.489,-674,-768,176
12.491,-776,-738,168
12.494,-846,-704,192
12.496,-912,-698,206
12.499,-946,-684,260
12.501,-944,-630,270
12.504,-936,-558,306
12.506,-894,-476,312
12.509,-858,-382,318
12.511,-790,-302,312
12.514,-696,-232,294
12.517,-604,-186,260
12.519,-486,-158,240
12.522,-372,-178,240
12.524,-262,-202,236
12.527,-174,-236,246
12.528,-88,-272,246
12.531,6,-280,236
12.533,60,-314,218
12.536,138,-326,196
12.539,190,-348,186
12.541,248,-354,188
12.544,284,-364,188
12.546,336,-362,186
12.549,388,-350,192
12.551,426,-320,194
12.554,468,-308,202
12.556,502,-286,208
12.559,546,-264,224
12.561,600,-238,212
12.564,652,-226,198
12.567,700,-224,170
12.569,734,-236,122
12.571,768,-266,78
12.573,776,-336,-6
12.576,792,-408,-36
12.578,798,-492,-62
12.581,792,-570,-48
12.583,794,-608,-12
12.586,792,-664,44
12.589,798,-690,128
12.591,798,-706,176
12.594,796,-722,188
12.596,800,-714,164
12.599,800,-698,86
12.601,824,-658,-36
12.604,836,-674,-152
12.606,870,-702,-208
12.609,910,-750,-252
12.610,978,-836,-258
12.613,1058,-978,-232
12.616,1176,-1166,-148
12.618,1322,-1440,4
12.621,1492,-1758,190
12.623,1700,-2118,394
12.626,1934,-2472,540
12.628,2156,-2812,588
12.631,2332,-3116,600
12.633,2446,-3372,636
12.636,2548,-3544,724
12.639,2572,-3536,900
12.641,2478,-3442,1174
12.644,2254,-3308,1380
12.646,2014,-3226,1528
12.649,1870,-3144,1734
12.650,1824,-3152,1804
12.653,1834,-3220,1774
12.655,1844,-3254,1628
12.658,1874,-3244,1286
12.660,1914,-3130,742
12.663,1892,-2830,20
12.666,1776,-2424,-664
12.668,1596,-2262,-948
12.671,1396,-2480,-624
12.673,1178,-3116,180
12.676,1042,-3940,962
12.678,976,-4620,1360
12.681,1052,-5008,1370
12.683,1184,-5512,1224
12.686,1180,-5894,1074
12.688,1260,-5904,930
12.691,1010,-5536,836
12.693,356,-4924,890
12.695,-248,-4298,828
12.698,-654,-3702,570
12.700,-928,-3192,322
12.703,-1128,-2746,156
12.705,-1226,-2368,114
12.708,-1204,-2070,220
12.710,-1088,-1898,478
12.713,-860,-1830,786
12.716,-580,-1830,956
12.718,214,-1818,1042
12.721,236,-1402,1398
12.723,58,-1458,1404
12.726,-178,-1826,1272
12.728,-354,-1934,1222
12.731,-218,-1978,1450
12.732,226,-2006,1950
12.735,962,-1522,1822
12.737,1710,-972,952
12.740,2358,-766,42
12.743,3238,-780,-656
12.745,5510,-572,-1188
12.748,9224,-228,-1148
12.750,12946,-560,-548
12.753,13006,-2190,-350
12.755,7624,-1882,1752
12.758,3814,-1964,3658
12.760,2004,-1618,3378
12.763,828,-686,1774
12.766,38,-478,-42
12.768,-988,-1588,-1382
12.771,-1830,-3618,-1380
12.772,-2362,-4932,-614
12.775,-2900,-5770,80
12.777,-3792,-5070,776
12.780,-5326,-2962,112
12.782,-5628,-1910,-1610
12.785,-4190,-1230,-2306
12.787,-2562,-1306,-1216
12.790,-1668,-1856,232
12.793,-1324,-2052,1028
12.795,-848,-2060,1300
12.798,-158,-2038,1320
12.800,374,-1928,1246
12.803,626,-1808,1158
12.805,734,-1820,1056
12.808,812,-1880,1016
12.810,984,-1920,1092
12.813,1262,-2014,1264
12.815,1560,-1974,1194
12.817,1798,-1916,880
12.820,1982,-1884,634
12.822,2148,-1918,600
12.825,2342,-1952,662
12.827,2488,-1958,764
12.830,2480,-2000,936
12.832,2328,-1966,1012
12.835,2074,-1864,988
12.837,1806,-1696,946
12.840,1600,-1534,918
12.843,1500,-1424,978
12.845,1536,-1358,1010
12.848,1720,-1302,990
12.850,1994,-1266,942
12.853,2334,-1270,846
12.854,2718,-1274,702
12.857,3096,-1246,530
12.859,3404,-1198,400
12.862,3582,-1158,322
12.864,3612,-1100,236
12.867,3552,-1028,196
12.870,3470,-902,146
12.872,3394,-740,108
12.875,3324,-592,-6
12.877,3264,-500,-58
12.880,3224,-468,-88
12.882,3180,-466,-104
12.885,3190,-460,-106
12.887,3190,-452,-138
12.890,3220,-442,-162
12.893,3274,-412,-230
12.894,3314,-330,-348
12.897,3290,-226,-462
12.899,3198,-146,-546
12.902,3094,-102,-588
12.904,2980,-102,-590
12.907,2880,-120,-558
12.909,2824,-152,-530
12.912,2790,-154,-542
12.914,2774,-156,-596
12.917,2728,-150,-686
12.920,2672,-138,-730
12.922,2598,-120,-726
12.925,2560,-138,-686
12.927,2596,-102,-624
12.930,2668,16,-514
12.932,2708,264,-362
12.935,2662,548,-194
12.936,2608,846,-54
12.939,2492,1138,90
12.942,2346,1410,294
12.944,2204,1660,468
12.947,2076,1872,554
12.949,1960,2094,676
12.952,1858,2270,796
12.954,1826,2438,894
12.957,1808,2596,916
12.959,1828,2856,896
12.962,1878,3208,792
12.964,1896,3484,654
12.967,1870,3678,568
12.970,1754,3692,624
12.972,1520,3650,724
12.975,1188,3562,742
12.976,940,3366,580
12.979,920,3024,282
12.981,862,2510,128
12.984,740,1936,306
12.986,716,1396,566
12.989,770,956,722
12.992,836,652,828
12.994,898,398,928
12.999,980,182,990
13.000,1094,18,966
13.003,1264,-122,866
13.005,1482,-228,682
13.008,1742,-316,466
13.010,2038,-404,190
13.013,2324,-514,-110
13.015,2622,-648,-416
13.018,2882,-834,-732
13.021,3070,-1026,-964
13.023,3106,-1078,-1004
13.026,3032,-1040,-904
13.028,2938,-970,-748
13.031,2832,-896,-582
13.033,2738,-808,-422
13.036,2622,-702,-268
13.038,2550,-562,-100
13.048,2376,204,440
13.050,2362,398,444
13.053,2320,580,394
13.055,2298,758,292
13.058,2258,912,170
13.060,2206,1036,54
13.063,2144,1100,-56
13.065,2096,1116,-158
13.068,2044,1074,-248
13.071,1992,1006,-294
13.073,1926,902,-328
13.076,1828,800,-344
13.078,1740,704,-292
13.081,1656,626,-208
13.082,1550,596,-142
13.085,1460,608,-124
13.087,1364,640,-114
13.090,1266,658,-122
13.092,1204,684,-140
13.095,1136,692,-142
13.098,1114,690,-180
13.100,1102,678,-174
13.103,1124,668,-156
13.105,1154,664,-100
13.108,1204,630,-26
13.110,1274,620,20
13.113,1336,590,96
13.115,1424,546,162
13.118,1512,504,230
13.121,1576,444,276
13.122,1640,402,330
13.125,1656,338,404
13.127,1656,284,434
13.130,1596,230,446
13.132,1538,176,426
13.135,1442,104,390
13.137,1340,32,312
13.140,1256,-52,260
13.142,1154,-140,216
13.145,1084,-234,158
13.148,1010,-364,176
13.150,944,-502,232
13.153,910,-592,336
13.155,896,-652,468
13.158,782,-766,522
13.160,508,-1068,524
13.162,200,-1316,458
13.164,-106,-1430,366
13.167,-322,-1398,314
13.170,-490,-1312,304
13.172,-606,-1214,354
13.175,-670,-1110,378
13.177,-726,-1024,456
13.180,-736,-954,512
13.182,-732,-940,588
13.185,-716,-952,696
13.187,-694,-994,782
13.190,-652,-1042,870
13.192,-620,-1060,938
13.195,-618,-1040,956
13.198,-602,-942,936
13.200,-624,-768,882
13.203,-630,-566,796
13.204,-660,-370,716
13.207,-646,-218,614
13.209,-612,-132,516
13.212,-548,-114,446
13.214,-470,-130,362
13.217,-378,-146,278
13.219,-272,-188,236
13.222,-162,-224,202
13.225,-64,-276,190
13.227,40,-318,168
13.230,130,-384,160
13.232,218,-426,142
13.235,278,-466,152
13.237,338,-506,172
13.240,392,-514,216
13.242,426,-556,234
13.244,466,-618,224
13.247,488,-716,182
13.249,536,-826,126
13.252,580,-904,56
13.254,644,-926,4
13.257,708,-904,-48
13.259,752,-804,-86
13.262,778,-702,-74
13.264,788,-602,-70
13.267,792,-522,-54
13.269,786,-496,-44
13.272,786,-492,-14
13.275,756,-494,18
13.277,722,-522,44
13.280,688,-540,80
13.282,634,-570,116
13.284,568,-560,134
13.286,502,-500,170
13.289,426,-402,198
13.291,380,-314,224
13.294,332,-256,174
13.297,316,-296,128
13.299,322,-338,42
13.302,356,-420,-64
13.304,422,-536,-138
13.307,504,-696,-186
13.309,628,-860,-186
13.312,770,-1052,-144
13.314,988,-1282,-16
13.317,1224,-1510,142
13.319,1464,-1778,238
13.322,1686,-2034,246
13.325,1846,-2256,216
13.326,1994,-2438,250
13.329,2100,-2532,292
13.331,2166,-2554,466
13.334,2200,-2564,658
13.336,2240,-2662,866
13.339,2316,-2856,1152
13.341,2426,-3044,1528
13.344,2558,-3204,1844
13.347,2656,-3316,1982
13.349,2678,-3448,1972
13.352,2648,-3608,1730
13.354,2580,-3708,1264
13.357,2448,-3612,524
13.359,2248,-3320,-348
13.362,1980,-2914,-1164
13.364,1640,-2472,-1566
13.366,1306,-2352,-1166
13.368,1104,-2732,-252
13.371,1006,-3416,566
13.374,1040,-3968,1072
13.376,1344,-4252,1326
13.379,1798,-4628,1364
13.381,2080,-5152,1256
13.384,2078,-5342,1058
13.386,1710,-5222,850
13.389,1014,-4906,802
13.391,374,-4404,842
13.394,-72,-3790,860
13.397,-414,-3168,834
13.399,-712,-2580,778
13.402,-1008,-2054,664
13.404,-1228,-1652,546
13.406,-1354,-1360,498
13.408,-1378,-1234,510
13.411,-1302,-1266,586
13.413,-1140,-1456,782
13.416,-890,-1740,1024
13.418,-604,-2008,1210
13.421,-254,-2154,1256
13.424,296,-1996,1362
13.426,472,-1392,1514
13.429,364,-1520,1322
13.431,254,-1914,1150
13.434,418,-1804,1046
13.436,784,-1608,1074
13.439,1440,-1560,968
13.441,2458,-1492,334
13.444,3778,-1164,-886
13.447,5468,-616,-1960
13.448,7496,-508,-2512
13.451,9156,-686,-2286
13.453,9598,-868,-1358
13.456,8370,-740,-842
13.458,5790,-784,-20
13.461,3268,-1640,1488
13.463,1788,-3504,3112
13.466,1250,-3400,3468
13.468,1170,-1894,2916
13.471,700,-1154,1862
13.474,-322,-1304,874
13.476,-1538,-2298,-352
13.479,-2552,-3510,-1498
13.481,-3340,-4642,-820
13.484,-3668,-4312,462
13.486,-4770,-3040,408
13.488,-5122,-1708,-952
13.490,-4156,-1168,-2186
13.493,-2820,-1320,-1714
13.496,-1826,-1642,-132
13.498,-1228,-1932,1264
13.501,-830,-2094,1834
13.503,-330,-2170,1686
13.506,264,-2054,1092
13.508,708,-1890,748
13.511,972,-1822,884
13.513,1186,-1848,978
13.516,1356,-1976,1008
13.518,1538,-2100,1190
13.521,1818,-2294,1366
13.524,2184,-2492,1362
13.526,2568,-2554,1040
13.528,2918,-2494,630
13.530,3154,-2426,292
13.533,3070,-2310,246
13.535,2648,-2076,414
13.538,2104,-1870,680
13.540,1656,-1704,920
13.543,1360,-1564,996
13.545,1210,-1434,944
13.548,1152,-1330,878
13.551,1180,-1302,888
13.553,1262,-1342,926
13.556,1394,-1406,960
13.558,1602,-1488,962
13.561,1920,-1566,920
13.563,2332,-1602,838
13.566,2842,-1574,722
13.568,3450,-1518,612
13.570,4022,-1428,394
13.573,4420,-1282,118
13.575,4506,-1032,-28
13.578,4324,-734,38
13.580,4072,-454,136
13.583,3834,-236,128
13.585,3642,-154,30
13.588,3538,-128,-98
13.590,3488,-152,-170
13.593,3490,-192,-172
13.595,3514,-232,-170
13.598,3578,-262,-216
13.601,3674,-280,-294
13.603,3742,-272,-420
13.606,3744,-234,-488
13.608,3662,-182,-508
13.610,3528,-136,-504
13.612,3358,-102,-498
13.615,3198,-62,-520
13.617,3080,32,-550
13.620,2938,146,-628
13.623,2802,224,-696
13.625,2682,294,-728
13.628,2638,384,-742
13.630,2640,546,-686
13.633,2642,790,-556
13.635,2612,1108,-348
13.638,2514,1380,-134
13.640,2386,1662,56
13.643,2216,1814,250
13.645,2062,1972,394
13.648,1944,2112,424
13.650,1852,2268,422
13.652,1806,2452,478
13.655,1776,2590,526
13.657,1782,2748,564
13.660,1780,2898,580
13.662,1762,2990,660
13.665,1756,3104,704
13.667,1734,3160,704
13.670,1650,3182,722
13.673,1454,3158,732
13.675,1184,3140,654
13.678,916,3090,452
13.680,878,2842,150
13.683,894,2386,-66
13.685,808,1864,94
13.688,778,1418,386
13.690,842,1076,504
13.692,964,810,562
13.694,1078,574,644
13.697,1212,344,686
13.700,1394,182,682
13.702,1604,50,584
13.705,1864,-42,460
13.707,2126,-144,274
13.710,2410,-264,92
13.712,2686,-394,-108
13.715,2924,-528,-360
13.717,3118,-708,-612
13.720,3220,-908,-816
13.722,3192,-990,-858
13.725,3090,-950,-748
13.728,2970,-896,-618
13.730,2856,-818,-492
13.732,2764,-726,-372
13.734,2690,-592,-232
13.737,2614,-444,-88
13.739,2572,-282,52
13.742,2552,-94,182
13.744,2532,82,288
13.747,2508,264,348
13.750,2482,420,350
13.752,2446,582,338
13.755,2382,764,260
13.757,2306,928,172
13.760,2216,1066,68
13.762,2116,1142,-64
13.765,2036,1172,-196
13.767,1922,1162,-324
13.770,1824,1142,-388
13.772,1714,1102,-438
13.774,1586,1042,-424
13.777,1476,978,-368
13.779,1352,882,-308
13.782,1266,800,-244
13.784,1180,742,-202
13.787,1120,694,-142
13.789,1072,668,-110
13.792,1054,640,-62
13.794,1078,640,-24
13.797,1096,632,-20
13.800,1150,640,46
13.802,1226,656,82
13.805,1314,680,154
13.807,1420,704,208
13.810,1536,728,268
13.812,1676,736,342
13.814,1804,722,396
13.816,1934,708,466
13.819,2042,674,498
13.821,2092,624,506
13.824,2076,556,522
13.827,1956,484,486
13.829,1784,388,456
13.832,1582,270,402
13.834,1396,134,354
13.837,1232,0,280
13.839,1102,-152,230
13.842,1002,-286,152
13.844,908,-444,126
13.847,840,-574,136
13.850,760,-710,186
13.852,722,-836,286
13.854,700,-910,422
13.856,634,-1026,548
13.859,456,-1210,670
13.861,188,-1388,678
13.864,-74,-1486,652
13.866,-298,-1492,600
13.869,-472,-1436,558
13.871,-616,-1336,538
13.874,-738,-1226,500
13.877,-824,-1132,470
13.879,-900,-1064,430
13.882,-944,-1038,402
13.884,-980,-1030,398
13.887,-1004,-1056,402
13.889,-1022,-1072,416
13.892,-1030,-1064,428
13.894,-1046,-1004,428
13.896,-1072,-874,420
13.898,-1076,-686,370
13.901,-1052,-484,322
13.904,-996,-300,272
13.906,-874,-144,238
13.909,-750,-42,188
13.911,-584,14,194
13.914,-444,26,198
13.916,-280,16,220
13.919,-146,0,238
13.921,-28,-32,248
13.924,92,-36,260
13.927,188,-62,238
13.929,270,-88,242
13.932,338,-120,222
13.934,412,-156,206
13.936,478,-176,222
13.938,524,-214,224
13.941,574,-214,242
13.943,608,-220,240
13.946,632,-224,240
13.948,652,-216,226
13.951,674,-238,208
13.954,692,-258,174
13.956,702,-314,132
13.959,718,-408,56
13.961,704,-538,6
13.964,718,-624,-42
13.966,688,-742,-30
13.969,682,-814,-20
13.971,682,-850,20
13.974,680,-884,88
13.976,702,-860,198
13.978,698,-840,262
13.981,690,-814,318
13.983,666,-752,320
13.986,654,-734,302
13.988,636,-696,222
13.991,634,-704,134
13.993,640,-730,102
13.998,672,-784,62
14.000,732,-876,46
14.002,788,-968,58
14.004,876,-1094,98
14.007,988,-1246,138
14.010,1110,-1456,206
14.012,1264,-1720,332
14.015,1426,-2042,458
14.017,1644,-2356,560
14.020,1880,-2690,560
14.022,2144,-3022,520
14.025,2422,-3310,512
14.027,2698,-3554,582
14.030,2962,-3690,736
14.033,3110,-3780,934
14.035,3070,-3874,1120
14.038,2844,-3894,1388
14.040,2574,-3904,1604
14.042,2372,-3868,1694
14.044,2214,-3808,1656
14.047,2096,-3704,1474
14.049,2006,-3570,1144
14.052,1872,-3338,660
14.054,1704,-2928,0
14.057,1484,-2364,-696
14.060,1224,-1764,-1176
14.062,962,-1328,-1206
14.065,764,-1264,-606
14.067,678,-1692,342
14.070,776,-2370,1118
14.072,952,-2904,1418
14.075,1200,-3098,1506
14.077,1540,-3182,1442
14.080,1768,-3706,1168
14.082,1730,-4270,910
14.084,1606,-4510,692
14.087,1346,-4456,558
14.089,846,-4166,578
14.092,262,-3724,612
14.094,-216,-3212,498
14.097,-594,-2766,374
14.099,-890,-2412,282
14.102,-1118,-2158,214
14.104,-1250,-1986,206
14.107,-1276,-1900,296
14.110,-1188,-1886,464
14.112,-1032,-1916,680
14.115,-834,-1962,858
14.117,-610,-2040,998
14.120,-396,-2092,994
14.122,-200,-2138,850
14.124,-60,-2194,588
14.126,64,-2266,286
14.129,166,-2404,-34
14.132,246,-2602,-314
14.134,626,-2740,-398
14.137,730,-2324,90
14.139,538,-1982,618
14.142,318,-1500,1200
14.144,344,-590,1392
14.147,546,36,1430
14.149,838,428,1518
14.152,1214,622,942
14.154,1604,564,258
14.157,2026,542,-128
14.160,5238,864,-1282
14.162,14168,4852,-246
14.164,16382,4400,506
14.166,9108,-3538,4658
14.169,3582,-6342,7452
14.171,1644,-2802,5722
14.174,86,268,2536
14.176,-888,-608,250
14.179,-1942,-2954,-1364
14.181,-3100,-4216,-2216
14.184,-3634,-6874,-2336
14.187,-2906,-8450,-1304
14.189,-3954,-6166,-1550
14.192,-6124,-3556,-2330
14.194,-5380,-2356,-1806
14.197,-2920,-1640,38
14.199,-1446,-878,1122
14.202,-1154,-912,1518
14.203,-978,-1436,1582
14.206,-562,-1778,1322
14.209,-20,-1740,740
14.211,374,-1474,350
14.214,640,-1318,358
14.216,830,-1286,328
14.219,946,-1322,460
14.221,1082,-1376,960
14.224,1346,-1468,1260
14.226,1650,-1638,1116
14.229,1948,-1768,850
14.231,2234,-1790,624
14.234,2568,-1814,596
14.237,2880,-1870,672
14.239,3040,-1960,840
14.242,2928,-2020,1050
14.244,2558,-1994,1144
14.246,2114,-1908,1060
14.248,1714,-1778,930
14.251,1478,-1584,862
14.253,1364,-1386,800
14.256,1354,-1284,770
14.259,1450,-1324,828
14.261,1656,-1438,824
14.264,1978,-1466,714
14.266,2412,-1442,628
14.269,2964,-1442,548
14.271,3578,-1368,428
14.274,4062,-1290,218
14.276,4298,-1204,62
14.279,4256,-1070,48
14.281,4086,-874,70
14.284,3866,-634,38
14.286,3684,-442,-52
14.288,3574,-316,-178
14.291,3506,-260,-250
14.293,3454,-242,-236
14.296,3404,-250,-222
14.298,3362,-272,-216
14.301,3396,-304,-242
14.303,3460,-268,-344
14.306,3456,-200,-420
14.309,3372,-100,-488
14.311,3258,-14,-542
14.314,3118,40,-532
14.316,2990,72,-500
14.319,2884,102,-450
14.321,2796,136,-446
14.324,2708,118,-480
14.325,2612,132,-534
14.328,2534,148,-548
14.330,2474,188,-496
14.333,2446,242,-418
14.336,2446,362,-324
14.338,2408,540,-242
14.341,2328,734,-134
14.343,2220,976,-48
14.346,2136,1206,78
14.348,2028,1424,264
14.351,1940,1584,416
14.353,1874,1784,514
14.356,1850,1990,584
14.358,1862,2246,656
14.361,1940,2510,650
14.364,2038,2760,576
14.366,2138,3028,476
14.368,2214,3258,280
14.370,2240,3412,190
14.373,2184,3404,210
14.375,2078,3304,444
14.378,1890,3172,624
14.380,1646,3068,632
14.383,1370,2976,490
14.386,1222,2858,238
14.388,1152,2550,2
14.391,1076,2032,-22
14.393,1002,1440,156
14.396,962,926,312
14.398,1004,540,412
14.401,1094,228,522
14.403,1242,-46,662
14.406,1408,-246,812
14.407,1610,-406,924
14.410,1856,-508,954
14.413,2136,-596,826
14.415,2432,-672,678
14.418,2734,-736,464
14.420,3074,-792,226
14.423,3390,-858,-64
14.425,3602,-878,-354
14.428,3602,-788,-480
14.430,3408,-628,-462
14.433,3158,-478,-394
14.436,2928,-338,-306
14.438,2724,-196,-202
14.441,2568,-36,-70
14.443,2452,108,48
14.446,2386,258,158
14.447,2342,424,232
14.450,2316,598,264
14.452,2292,778,262
14.455,2252,936,234
14.457,2222,1102,160
14.460,2164,1250,40
14.463,2094,1378,-80
14.465,2016,1452,-212
14.468,1936,1480,-290
14.470,1852,1462,-338
14.473,1772,1446,-342
14.475,1688,1406,-314
14.478,1582,1324,-276
14.480,1488,1264,-258
14.483,1384,1182,-260
14.485,1304,1096,-268
14.488,1232,1022,-308
14.490,1152,944,-344
14.492,1086,876,-342
14.495,1030,804,-334
14.497,1004,748,-304
14.500,984,666,-288
14.502,1002,560,-254
14.505,1026,480,-210
14.507,1076,394,-168
14.510,1156,306,-108
14.513,1242,222,-64
14.515,1338,138,-6
14.518,1440,38,42
14.520,1538,-60,88
14.523,1634,-162,174
14.525,1694,-264,262
14.528,1746,-368,348
14.529,1756,-486,404
14.532,1728,-592,438
14.534,1662,-686,440
14.537,1564,-766,394
14.540,1454,-820,330
14.542,1316,-878,272
14.545,1212,-916,232
14.547,1090,-974,212
14.550,1018,-992,226
14.552,946,-934,260
14.555,830,-882,372
14.557,628,-924,444
14.560,332,-1024,440
14.563,24,-1074,380
14.565,-256,-1092,334
14.568,-458,-1042,312
14.569,-622,-980,298
14.572,-740,-918,278
14.574,-832,-844,244
14.577,-902,-776,242
14.579,-924,-730,238
14.582,-946,-706,240
14.584,-910,-700,278
14.587,-880,-686,298
14.590,-814,-678,320
14.592,-746,-626,344
14.595,-680,-534,348
14.597,-618,-412,354
14.600,-574,-254,342
14.602,-504,-106,326
14.605,-432,14,302
14.607,-344,80,294
14.610,-264,96,268
14.612,-184,70,276
14.614,-96,38,290
14.617,-32,-22,300
14.619,54,-86,318
14.622,128,-158,296
14.624,202,-240,288
14.627,280,-310,298
14.629,352,-386,284
14.632,430,-450,266
14.634,482,-500,248
14.637,536,-550,242
14.640,588,-576,230
14.642,626,-594,228
14.645,656,-582,248
14.647,664,-568,244
14.650,682,-590,208
14.651,692,-662,162
14.654,722,-754,86
14.656,744,-842,20
14.659,766,-942,-34
14.661,768,-986,-78
14.664,756,-1036,-96
14.667,748,-1048,-60
14.669,740,-1050,14
14.672,736,-1040,100
14.674,744,-1016,184
14.677,734,-992,252
14.679,710,-968,308
14.682,660,-912,308
14.684,614,-846,320
14.687,552,-768,276
14.690,482,-718,242
14.691,424,-670,184
14.694,400,-676,166
14.696,408,-710,148
14.699,438,-778,172
14.701,496,-874,234
14.704,576,-976,286
14.706,686,-1094,368
14.709,818,-1242,444
14.711,982,-1452,566
14.714,1192,-1676,710
14.717,1406,-1912,764
14.719,1680,-2122,730
14.722,1912,-2290,644
14.724,2144,-2454,592
14.727,2368,-2630,646
14.729,2592,-2822,790
14.732,2796,-3008,984
14.733,2982,-3166,1180
14.736,3070,-3290,1484
14.739,3034,-3424,1712
14.741,2904,-3562,1858
14.744,2722,-3656,1872
14.746,2544,-3754,1684
14.749,2358,-3830,1268
14.751,2146,-3806,664
14.754,1938,-3624,-62
14.756,1672,-3270,-790
14.759,1394,-2758,-1312
14.761,1046,-2214,-1372
14.764,788,-2024,-746
14.767,646,-2318,258
14.769,654,-2818,932
14.772,766,-3122,1196
14.773,1052,-3272,1276
14.776,1470,-3530,1196
14.778,1710,-4018,1024
14.781,1748,-4268,800
14.783,1582,-4284,592
14.786,1172,-4136,588
14.788,658,-3910,730
14.791,212,-3530,770
14.794,-120,-3050,690
14.796,-406,-2580,582
14.799,-646,-2148,488
14.801,-832,-1758,390
14.804,-966,-1464,328
14.806,-1012,-1262,320
14.809,-982,-1190,346
14.811,-898,-1242,406
14.813,-776,-1362,544
14.816,-622,-1532,694
14.818,-436,-1680,770
14.821,-234,-1782,774
14.823,-50,-1798,690
14.826,86,-1800,456
14.828,314,-1838,124
14.831,670,-1658,114
14.833,700,-1472,368
14.836,560,-1810,668
14.838,504,-1766,1128
14.841,630,-1146,1452
14.844,972,-750,1428
14.846,1612,-434,1214
14.849,2446,-124,448
14.851,3522,270,-482
14.854,5224,736,-1574
14.855,8010,744,-2002
14.858,11222,1532,-924
14.860,13058,2686,-1250
14.863,9078,974,22
14.866,4046,-2662,3378
14.868,2182,-6482,5428
14.871,1858,-4720,4690
14.873,1378,-794,3302
14.876,708,-290,1442
14.878,-466,-1852,-308
14.881,-2096,-2850,-1600
14.883,-3034,-4566,-2582
14.886,-3242,-7112,-1446
14.888,-3122,-6976,-796
14.891,-4678,-4956,-738
14.894,-5328,-2554,-1316
14.895,-3868,-1732,-1494
14.898,-2274,-1442,-360
14.900,-1458,-1300,894
14.903,-1132,-1646,1488
14.905,-912,-1960,1528
14.908,-602,-2154,1264
14.910,-94,-2078,702
14.913,360,-1666,-6
14.915,688,-1346,-140
14.918,944,-1284,190
14.921,1116,-1374,638
14.923,1236,-1490,1272
14.926,1390,-1602,1654
14.928,1622,-1758,1556
14.931,1906,-1904,1266
14.933,2326,-1940,1000
14.935,2882,-1868,940
14.937,3360,-1842,826
14.940,3390,-1778,706
14.943,2946,-1644,816
14.945,2368,-1502,1074
14.948,1858,-1434,1208
14.950,1500,-1436,1158
14.953,1306,-1380,1038
14.955,1230,-1260,938
14.958,1232,-1148,878
14.960,1280,-1204,858
14.963,1384,-1350,878
14.965,1616,-1452,844
14.968,1978,-1474,726
14.971,2460,-1424,606
14.973,3028,-1368,514
14.976,3626,-1346,394
14.977,4098,-1320,170
14.980,4300,-1276,48
14.982,4258,-1174,34
14.985,4116,-968,112
14.987,3970,-750,160
14.990,3840,-570,104
14.993,3714,-450,14
14.995,3592,-336,-60
15.000,3498,-272,-106
15.001,3434,-240,-124
15.004,3426,-246,-130
15.006,3436,-258,-176
15.009,3448,-244,-212
15.011,3440,-154,-248
15.014,3364,-32,-270
15.016,3282,80,-288
15.019,3176,166,-320
15.022,3088,238,-306
15.024,3028,318,-264
15.027,2996,458,-306
15.029,2928,618,-390
15.032,2788,782,-510
15.034,2614,866,-574
15.037,2444,902,-560
15.039,2288,952,-496
15.041,2142,1044,-366
15.044,1974,1136,-106
15.046,1804,1270,180
15.049,1640,1398,400
15.051,1510,1496,596
15.054,1440,1646,680
15.056,1450,1812,664
15.059,1538,2052,646
15.061,1684,2326,664
15.064,1876,2594,652
15.066,2080,2824,596
15.069,2286,3026,476
15.072,2416,3158,412
15.074,2436,3158,392
15.077,2328,3046,528
15.079,2070,2830,734
15.081,1718,2676,796
15.083,1284,2572,636
15.086,880,2472,362
15.088,712,2264,20
15.091,622,1872,-200
15.093,538,1428,-32
15.096,536,1010,256
15.099,652,702,460
15.101,810,468,512
15.104,1012,290,574
15.106,1220,130,656
15.109,1434,26,690
15.111,1694,0,674
15.114,1956,-36,580
15.116,2238,-102,440
15.119,2514,-160,268
15.122,2768,-222,90
15.123,2996,-244,-76
15.126,3106,-266,-230
15.128,3132,-272,-322
15.131,3066,-276,-402
15.133,2948,-256,-448
15.136,2794,-194,-422
15.138,2630,-146,-380
15.141,2498,-72,-294
15.143,2362,-14,-220
15.146,2284,26,-124
15.149,2206,88,-36
15.151,2150,158,38
15.154,2102,228,70
15.156,2058,304,60
15.159,2032,392,60
15.161,1984,478,20
15.163,1950,546,0
15.165,1898,634,-36
15.168,1858,720,-64
15.171,1810,776,-136
15.173,1756,800,-196
15.176,1698,850,-262
15.178,1612,858,-316
15.181,1546,892,-332
15.183,1460,894,-356
15.186,1384,866,-374
15.188,1308,832,-352
15.191,1262,786,-342
15.193,1212,736,-316
15.196,1170,682,-304
15.199,1148,646,-260
15.201,1132,624,-232
15.203,1120,598,-170
15.205,1132,608,-102
15.208,1130,604,-48
15.210,1160,604,-4
15.213,1190,624,28
15.215,1240,648,58
15.218,1280,660,100
15.220,1342,686,126
15.223,1422,700,160
15.226,1496,712,192
15.228,1578,710,232
15.231,1630,676,264
15.233,1692,646,300
15.236,1704,592,298
15.238,1688,516,316
15.241,1630,444,324
15.243,1542,326,304
15.245,1430,208,286
15.248,1306,66,270
15.250,1206,-88,246
15.253,1098,-244,192
15.255,1006,-406,154
15.258,922,-542,118
15.260,818,-690,96
15.263,750,-810,122
15.265,688,-906,214
15.268,602,-984,338
15.270,408,-1098,408
15.273,146,-1220,422
15.276,-110,-1216,368
15.278,-302,-1158,336
15.281,-426,-1060,360
15.283,-510,-968,380
15.285,-558,-862,388
15.287,-594,-760,390
15.290,-606,-688,358
15.292,-604,-660,342
15.295,-596,-672,292
15.298,-566,-718,296
15.300,-530,-756,314
15.303,-488,-790,336
15.305,-436,-794,362
15.308,-396,-752,384
15.310,-354,-662,388
15.313,-346,-550,424
15.315,-308,-428,444
15.318,-286,-306,442
15.320,-232,-254,420
15.323,-176,-202,370
15.325,-84,-204,350
15.327,-8,-218,328
15.330,76,-256,312
15.332,180,-298,318
15.335,254,-330,292
15.337,312,-374,258
15.340,388,-410,220
15.342,462,-440,188
15.345,516,-458,158
15.348,566,-474,156
15.350,622,-490,164
15.353,670,-472,168
15.355,718,-466,192
15.358,758,-458,188
15.360,792,-484,168
15.363,850,-546,128
15.365,892,-576,54
15.367,948,-606,10
15.369,994,-600,-34
15.372,1034,-578,-54
15.375,1054,-544,-80
15.377,1078,-558,-56
15.380,1086,-556,-30
15.382,1088,-606,6
15.385,1102,-634,24
15.387,1096,-666,60
15.390,1112,-678,126
15.392,1100,-696,186
15.395,1070,-678,240
15.397,1048,-648,280
15.400,1020,-632,292
15.403,1010,-610,240
15.405,1000,-630,166
15.407,1030,-684,112
15.409,1086,-738,64
15.412,1186,-798,68
15.414,1296,-914,138
15.417,1422,-1058,246
15.419,1588,-1220,368
15.422,1768,-1384,504
15.425,1978,-1552,664
15.427,2196,-1714,766
15.430,2408,-1914,774
15.432,2582,-2154,722
15.435,2678,-2422,616
15.437,2742,-2658,606
15.440,2794,-2856,694
15.442,2808,-3006,780
15.445,2754,-3102,964
15.447,2646,-3200,1200
15.449,2530,-3344,1402
15.452,2364,-3496,1528
15.454,2232,-3642,1592
15.457,2116,-3764,1480
15.459,2028,-3844,1236
15.462,1924,-3834,844
15.464,1834,-3756,374
15.467,1716,-3524,-168
15.469,1504,-3180,-664
15.472,1254,-2754,-918
15.475,982,-2348,-810
15.477,776,-2232,-288
15.480,684,-2416,332
15.482,732,-2720,766
15.485,864,-2996,1022
15.487,1066,-3258,1114
15.489,1240,-3556,1074
15.491,1266,-3840,1014
15.494,1230,-3990,972
15.496,1112,-4008,954
15.499,830,-3864,1000
15.502,434,-3542,988
15.504,36,-3146,834
15.507,-298,-2736,624
15.509,-570,-2376,436
15.512,-778,-2074,272
15.514,-928,-1788,162
15.517,-1006,-1556,130
15.519,-1010,-1392,150
15.522,-960,-1304,170
15.524,-876,-1352,242
15.527,-776,-1446,340
15.529,-612,-1576,462
15.531,-416,-1682,556
15.534,-18,-1792,558
15.536,460,-1492,842
15.539,508,-1088,1108
15.541,412,-1204,1160
15.544,246,-1428,1256
15.546,230,-1354,1368
15.549,476,-1134,1500
15.552,1088,-1042,1690
15.554,2064,-974,1330
15.557,3466,-846,280
15.559,5552,-628,-1018
15.562,7896,-532,-1224
15.564,9784,-192,126
15.567,11520,190,-450
15.569,9532,204,-376
15.571,4900,-2882,3572
15.573,2928,-5988,5990
15.576,2814,-4370,6240
15.579,2058,82,2498
15.581,1066,1400,-386
15.584,-280,-1442,-1430
15.586,-2182,-3174,-2760
15.589,-3642,-4396,-2094
15.591,-3708,-7490,270
15.594,-3238,-7808,-306
15.596,-4166,-5014,-1328
15.599,-5240,-2104,-1534
15.602,-3836,-1696,-1448
15.604,-2170,-1584,-246
15.607,-1322,-1208,818
15.609,-1026,-1366,1146
15.611,-944,-1666,1510
15.613,-768,-1914,1668
15.616,-322,-2050,1238
15.618,156,-1812,532
15.621,462,-1528,112
15.623,716,-1470,74
15.626,990,-1420,42
15.629,1244,-1276,404
15.631,1432,-1296,1092
15.634,1562,-1372,1434
15.636,1704,-1454,1306
15.639,1922,-1598,1250
15.641,2286,-1750,1338
15.644,2720,-1842,1128
15.646,2994,-1878,694
15.649,2954,-1814,466
15.650,2652,-1612,438
15.653,2204,-1394,542
15.656,1780,-1366,724
15.658,1456,-1438,942
15.661,1260,-1498,1032
15.663,1214,-1518,988
15.666,1274,-1508,840
15.668,1388,-1476,744
15.671,1522,-1490,724
15.673,1678,-1580,680
15.676,1914,-1640,584
15.679,2224,-1628,544
15.681,2632,-1664,520
15.684,3102,-1702,368
15.686,3570,-1642,136
15.689,3916,-1470,22
15.691,4090,-1230,-4
15.693,4110,-876,0
15.695,3970,-516,28
15.698,3750,-282,104
15.700,3544,-188,172
15.703,3400,-176,172
15.706,3282,-156,160
15.708,3198,-152,104
15.711,3162,-146,60
15.713,3174,-172,-6
15.716,3234,-180,-82
15.718,3304,-180,-176
15.721,3334,-156,-236
15.723,3354,-98,-296
15.726,3328,-34,-340
15.729,3250,44,-358
15.731,3072,100,-370
15.733,2874,130,-404
15.735,2624,174,-490
15.738,2346,192,-610
15.740,2056,210,-682
15.743,1760,186,-680
15.745,1496,154,-580
15.748,1310,136,-512
15.750,1216,196,-462
15.753,1120,284,-368
15.756,1052,414,-300
15.758,1050,554,-224
15.761,1074,694,-100
15.763,1174,856,66
15.766,1306,1042,206
15.768,1498,1236,374
15.771,1738,1478,524
15.772,2012,1760,650
15.775,2334,2028,756
15.778,2650,2298,830
15.780,2908,2584,882
15.783,3024,2818,920
15.785,2990,2936,972
15.788,2762,2950,922
15.790,2416,2836,822
15.793,2004,2658,676
15.795,1550,2420,624
15.798,1114,2232,590
15.800,720,2102,504
15.803,558,1884,332
15.806,550,1476,94
15.808,526,1046,106
15.811,536,708,292
15.813,620,450,392
15.815,742,278,430
15.817,870,126,486
15.820,1010,-6,556
15.822,1186,-64,578
15.825,1382,-98,536
15.827,1580,-106,432
15.830,1784,-92,286
15.833,1992,-64,100
15.835,2154,-10,-72
15.838,2270,60,-252
15.840,2302,126,-392
15.843,2274,168,-490
15.845,2190,178,-542
15.848,2064,146,-564
15.850,1944,124,-548
15.853,1838,112,-508
15.855,1752,80,-444
15.857,1690,80,-364
15.860,1638,52,-318
15.862,1616,50,-256
15.865,1590,54,-214
15.867,1596,66,-152
15.870,1592,90,-118
15.872,1598,118,-94
15.875,1604,162,-62
15.877,1618,202,-82
15.880,1644,250,-76
15.883,1644,282,-84
15.885,1666,328,-88
15.888,1664,372,-90
15.890,1684,412,-82
15.893,1684,450,-74
15.894,1678,476,-70
15.897,1666,508,-54
15.899,1632,532,-50
15.902,1602,564,-38
15.905,1552,596,-42
15.907,1508,614,-54
15.910,1448,632,-54
15.912,1378,608,-50
15.915,1322,586,-46
15.917,1266,562,-32
15.920,1238,532,-4
15.922,1196,510,10
15.925,1170,474,60
15.927,1156,454,110
15.930,1160,402,172
15.933,1190,382,204
15.935,1208,352,236
15.937,1274,328,268
15.939,1318,302,284
15.942,1398,278,298
15.944,1474,244,334
15.947,1542,196,354
15.949,1618,152,396
15.952,1660,96,448
15.954,1688,40,520
15.957,1674,-28,554
15.960,1628,-120,610
15.962,1572,-220,612
15.965,1502,-312,588
15.967,1410,-380,516
15.970,1306,-466,426
15.972,1226,-524,348
15.975,1108,-598,280
15.976,1010,-686,244
15.979,902,-774,238
15.982,808,-818,298
15.984,732,-802,382
15.987,600,-788,454
15.989,406,-832,474
15.992,148,-890,396
15.994,-70,-924,280
15.999,-218,-890,196
16.000,-328,-872,106
16.003,-402,-812,60
16.005,-458,-754,40
16.008,-496,-700,44
16.011,-520,-668,68
16.013,-544,-668,130
16.016,-554,-666,162
16.018,-544,-664,218
16.021,-526,-640,260
16.023,-504,-592,298
16.026,-460,-522,320
16.028,-420,-422,328
16.031,-384,-332,312
16.033,-338,-246,306
16.036,-310,-196,270
16.039,-262,-154,284
16.040,-222,-142,270
16.043,-176,-154,298
16.045,-138,-176,298
16.048,-98,-218,294
16.050,-62,-250,280
16.053,-28,-304,262
16.055,-10,-360,256
16.058,6,-396,214
16.060,32,-442,200
16.063,56,-474,198
16.066,94,-500,198
16.068,134,-504,182
16.071,182,-504,182
16.073,236,-476,174
16.076,266,-446,170
16.078,328,-410,186
16.081,388,-360,174
16.082,446,-320,166
16.085,512,-276,158
16.088,568,-244,130
16.090,630,-224,104
16.093,680,-234,70
16.095,758,-254,82
16.098,814,-254,52
16.100,894,-276,72
16.103,962,-308,98
16.105,1028,-322,102
16.108,1092,-324,104
16.110,1132,-350,56
16.113,1158,-382,18
16.116,1176,-428,-4
16.118,1202,-482,-18
16.121,1226,-510,32
16.122,1244,-554,94
16.125,1278,-542,172
16.127,1310,-512,272
16.130,1344,-486,378
16.132,1380,-492,388
16.135,1430,-538,298
16.138,1508,-582,160
16.140,1592,-608,-40
16.143,1688,-640,-224
16.145,1762,-670,-388
16.148,1848,-720,-432
16.150,1948,-798,-342
16.153,2086,-872,-118
16.155,2252,-924,166
16.158,2386,-964,368
16.160,2518,-972,460
16.162,2608,-1034,420
16.165,2678,-1160,400
16.167,2728,-1332,360
16.170,2754,-1562,364
16.172,2770,-1804,496
16.175,2758,-2078,646
16.177,2742,-2350,812
16.180,2692,-2612,1014
16.182,2626,-2834,1182
16.185,2520,-3020,1284
16.187,2364,-3140,1276
16.190,2220,-3148,1188
16.193,2070,-3090,1016
16.195,1966,-2930,736
16.198,1852,-2736,464
16.200,1760,-2530,246
16.203,1656,-2342,150
16.204,1540,-2178,76
16.207,1400,-2034,12
16.209,1226,-1938,14
16.212,1066,-1924,116
16.215,890,-2076,306
16.217,726,-2302,556
16.220,540,-2558,818
16.222,382,-2814,1040
16.225,222,-3062,1178
16.227,74,-3328,1256
16.230,-60,-3564,1232
16.232,-178,-3720,1098
16.235,-268,-3770,872
16.237,-410,-3724,588
16.240,-564,-3600,336
16.243,-732,-3450,146
16.244,-798,-3288,16
16.247,-784,-3122,-26
16.249,-724,-2968,-48
16.252,-594,-2830,8
16.254,-414,-2678,56
16.257,-208,-2520,156
16.259,74,-2352,246
16.262,676,-2026,528
16.265,898,-1318,1012
16.267,920,-1098,1134
16.270,806,-1096,1048
16.272,670,-1100,1210
16.275,644,-970,1300
16.277,912,-820,1822
16.280,1552,-572,2240
16.282,2660,-24,1422
16.284,4164,764,520
16.286,6332,1800,-242
16.289,9000,3120,292
16.292,11438,3446,2852
16.294,11826,2982,2448
16.297,8030,2632,982
16.299,2920,1982,1816
16.302,-266,-1164,5208
16.304,-392,-5568,8204
16.307,1184,-5722,6274
16.309,2506,-3346,1554
16.312,2482,-4968,-3212
16.314,884,-10210,-5278
16.317,-1334,-7510,-6288
16.320,-3110,-9158,-3012
16.322,-2650,-8336,-652
16.325,-2092,-6816,-206
16.326,-2176,-4716,-92
16.329,-2298,-1234,-658
16.331,-1946,94,-450
16.334,-1518,-278,1392
16.336,-1298,-588,2502
16.339,-1328,-628,1700
16.342,-1192,-1006,946
16.344,-928,-1282,686
16.347,-608,-1410,462
16.349,-274,-1410,336
16.352,98,-1238,326
16.354,420,-1002,198
16.357,610,-922,434
16.359,730,-960,708
16.362,810,-848,598
16.364,882,-736,790
16.366,1000,-732,1132
16.369,1246,-690,1256
16.371,1540,-644,1222
16.374,1900,-592,1238
16.376,2208,-598,1270
16.379,2394,-712,1100
16.381,2402,-856,822
16.384,2254,-958,584
16.386,2038,-940,472
16.389,1834,-892,406
16.392,1658,-846,344
16.394,1526,-810,318
16.397,1410,-868,368
16.399,1360,-958,472
16.402,1314,-1078,580
16.404,1288,-1208,696
16.406,1288,-1318,760
16.408,1290,-1418,790
16.411,1332,-1520,764
16.413,1404,-1642,668
16.416,1530,-1696,484
16.419,1702,-1662,276
16.421,1902,-1650,134
16.424,2114,-1660,10
16.426,2338,-1656,-132
16.429,2544,-1616,-170
16.431,2716,-1562,-178
16.434,2866,-1482,-142
16.436,2926,-1342,-98
16.439,2904,-1148,-24
16.442,2822,-912,36
16.444,2702,-632,34
16.447,2578,-352,14
16.448,2468,-124,-44
16.451,2378,36,-98
16.453,2306,142,-132
16.456,2230,166,-136
16.458,2202,182,-94
16.461,2182,188,-102
16.463,2172,188,-146
16.466,2138,184,-182
16.469,2114,150,-178
16.471,2106,120,-170
16.474,2114,80,-156
16.476,2134,80,-126
16.479,2182,48,-124
16.481,2264,28,-122
16.484,2362,58,-120
16.486,2458,126,-142
16.488,2476,238,-150
16.491,2426,328,-152
16.493,2282,384,-116
16.496,2084,400,-116
16.498,1864,420,-90
16.501,1658,458,-26
16.503,1478,526,16
16.506,1300,606,48
16.508,1150,676,38
16.511,1028,748,26
16.513,920,804,8
16.516,876,880,0
16.519,886,980,0
16.521,958,1066,-48
16.524,1050,1146,-84
16.526,1184,1216,-94
16.528,1344,1296,-88
16.530,1522,1364,-54
16.533,1682,1450,8
16.535,1808,1544,50
16.538,1896,1636,74
16.540,1944,1716,74
16.543,1946,1748,-4
16.546,1902,1778,-102
16.548,1824,1766,-214
16.551,1722,1688,-264
16.553,1600,1580,-250
16.556,1492,1432,-152
16.558,1388,1298,-36
16.561,1288,1106,30
16.563,1222,866,32
16.566,1144,606,4
16.569,1096,352,-2
16.570,1088,120,22
16.573,1104,-84,88
16.575,1184,-244,158
16.578,1254,-366,220
16.580,1366,-430,248
16.583,1464,-476,278
16.585,1560,-506,272
16.588,1636,-500,254
16.590,1690,-484,234
16.593,1734,-432,178
16.596,1748,-372,130
16.598,1742,-284,110
16.601,1716,-198,52
16.603,1672,-100,30
16.606,1614,-4,18
16.608,1548,60,2
16.610,1470,116,-2
16.612,1384,154,2
16.615,1302,182,4
16.618,1240,190,6
16.620,1190,198,-12
16.623,1122,200,-10
16.625,1068,190,-12
16.628,1046,172,-6
16.630,998,160,-22
16.633,980,150,-8
16.635,962,134,6
16.638,950,106,30
16.640,948,116,52
16.643,952,116,74
16.646,966,126,112
16.648,970,144,156
16.650,994,152,186
16.652,1010,164,214
16.655,1024,156,234
16.657,1050,168,256
16.660,1078,176,274
16.662,1120,182,302
16.665,1162,198,318
16.667,1208,192,348
16.670,1248,160,382
16.673,1282,124,422
16.675,1326,68,474
16.678,1360,10,530
16.680,1382,-68,610
16.683,1386,-164,684
16.685,1368,-260,754
16.688,1352,-330,808
16.690,1302,-416,820
16.692,1272,-454,816
16.695,1208,-476,772
16.697,1140,-472,746
16.700,1062,-444,684
16.702,978,-422,648
16.705,888,-376,596
16.707,786,-338,570
16.710,682,-314,556
16.712,580,-300,558
16.715,494,-294,536
16.717,416,-296,540
16.720,340,-314,514
16.723,280,-338,478
16.725,208,-390,412
16.728,138,-446,340
16.730,60,-526,264
16.732,-10,-600,204
16.734,-70,-668,176
17.033,6490,3958,-352
17.035,6252,3100,892
17.038,4976,1774,2470
17.040,3484,566,3004
17.042,2194,-544,2806
17.044,1128,-1210,3316
17.047,602,-2394,4904
17.050,770,-4122,6036
17.052,1184,-4692,5052
17.055,2042,-3676,2874
17.057,3902,-4526,266
17.060,5138,-6436,-4574
17.062,2920,-5330,-5034
17.065,578,-3230,-4100
17.067,-376,-3972,-2970
17.070,-488,-5070,-832
17.072,-18,-4310,-54
17.075,-72,-3822,272
17.078,-590,-3118,422
17.080,-1042,-1344,-136
17.082,-1106,-126,270
17.084,-882,-182,874
17.087,-762,-286,946
17.089,-880,-132,544
17.092,-948,-162,286
17.094,-776,-520,282
17.097,-486,-794,372
17.100,-208,-870,396
17.102,30,-966,408
17.105,266,-1004,488
17.107,440,-894,542
17.110,566,-752,446
17.112,648,-546,354
17.115,688,-404,454
17.117,726,-290,664
17.120,750,-188,876
17.122,842,-110,1076
17.124,974,-84,1166
17.127,1162,-106,1138
17.129,1384,-160,1024
17.132,1576,-218,942
17.134,1756,-252,880
17.137,1822,-330,822
17.139,1800,-448,728
17.142,1694,-524,630
17.144,1538,-596,564
17.147,1386,-628,554
17.150,1244,-648,530
17.152,1130,-648,510
17.155,1040,-658,492
17.157,968,-690,468
17.160,926,-732,418
17.162,902,-776,338
17.164,904,-830,286
17.166,918,-882,220
17.169,944,-958,174
17.171,972,-1018,136
17.174,986,-1084,108
17.177,1006,-1146,104
17.179,990,-1214,84
17.182,966,-1264,100
17.184,936,-1280,122
17.187,896,-1296,142
17.189,854,-1298,184
17.192,812,-1282,206
17.194,784,-1250,232
17.197,764,-1192,240
17.199,748,-1112,256
17.202,754,-1036,260
17.204,776,-958,262
17.206,806,-880,284
17.209,858,-790,318
17.211,920,-738,338
17.214,982,-668,342
17.216,1036,-620,352
17.219,1102,-576,352
17.221,1148,-524,334
17.224,1196,-488,346
17.227,1220,-442,332
17.229,1246,-406,326
17.232,1264,-360,340
17.234,1270,-326,326
17.237,1270,-302,322
17.239,1256,-280,310
17.242,1234,-260,312
17.244,1212,-258,304
17.246,1174,-252,308
17.248,1142,-250,288
17.251,1110,-252,266
17.254,1080,-262,242
17.256,1066,-256,234
17.259,1048,-250,216
17.261,1030,-234,186
17.264,1032,-232,164
17.266,1030,-216,136
17.269,1024,-204,116
17.271,1020,-202,98
17.274,1016,-188,80
17.277,1022,-186,74
17.279,1022,-172,60
17.282,1022,-166,44
17.284,1034,-154,34
17.286,1034,-142,18
17.288,1048,-144,-2
17.291,1052,-132,-10
17.293,1076,-126,-34
17.296,1080,-110,-48
17.298,1088,-108,-74
17.301,1090,-106,-88
17.304,1102,-98,-110
17.306,1110,-96,-112
17.309,1122,-72,-126
17.311,1126,-78,-132
17.314,1132,-62,-136
17.316,1130,-46,-150
17.319,1144,-30,-150
17.515,258,-92,118
17.518,244,-114,100
17.520,240,-150,102
17.523,252,-172,88
17.525,248,-216,56
17.528,260,-252,36
17.530,268,-296,24
17.532,282,-330,30
17.535,286,-364,48
17.537,306,-404,58
17.540,310,-428,86
17.542,326,-460,108
17.545,344,-462,122
17.547,336,-462,132
17.550,342,-456,134
17.553,320,-436,126
17.555,314,-422,108
17.558,304,-392,90
17.560,272,-384,60
17.563,256,-362,54
17.565,228,-354,18
17.568,202,-350,8
17.569,176,-358,0
17.572,144,-370,4
17.574,114,-364,-2
17.577,92,-366,-18
17.580,60,-374,-6
17.582,28,-374,-10
17.585,0,-384,-16
17.587,-6,-384,-30
17.590,-34,-390,-14
17.592,-40,-386,-12
17.595,-46,-382,6
17.597,-48,-374,14
17.600,-42,-360,16
17.602,-38,-364,8
17.605,-28,-352,8
17.608,-6,-348,-8
17.610,28,-344,8
17.612,54,-334,-6
17.614,124,-332,6
17.617,172,-314,10
17.619,222,-316,-2
17.622,274,-298,2
17.624,328,-282,-22
17.627,390,-278,-28
17.630,450,-252,-18
17.632,502,-232,-16
17.635,562,-194,0
17.637,622,-158,18
17.640,680,-122,34
17.642,710,-92,38
17.645,758,-78,42
17.647,784,-66,40
17.650,810,-74,42
17.651,836,-78,62
17.654,858,-90,74
17.657,872,-116,104
17.659,878,-144,124
17.662,888,-178,128
17.664,894,-212,168
17.667,884,-248,182
17.669,890,-288,202
17.672,892,-330,198
17.674,904,-380,176
17.677,922,-398,146
17.680,940,-430,122
17.682,970,-456,112
17.685,998,-506,114
17.687,1042,-556,88
17.690,1078,-612,98
17.691,1100,-692,92
17.694,1136,-762,90
17.696,1176,-844,96
17.699,1240,-950,146
17.701,1294,-1052,184
17.704,1366,-1164,242
17.707,1434,-1264,274
17.709,1474,-1376,282
17.712,1440,-1546,322
17.714,1240,-1774,554
17.717,922,-2054,890
17.719,656,-2276,1076
17.722,610,-2542,1260
17.724,852,-2852,1442
17.727,1296,-2920,1504
17.730,1764,-2532,1360
17.732,2106,-2130,972
17.734,2214,-2084,570
17.736,1990,-2372,390
17.739,1562,-2662,432
17.741,1112,-2818,616
17.744,758,-3008,968
17.746,434,-3428,1594
17.749,250,-3704,2212
17.751,418,-3356,2702
17.754,778,-2202,3072
17.757,1046,-832,2894
17.759,1152,184,2288
17.762,1196,804,1762
17.764,1290,1222,1074
17.767,1504,2034,-218
17.769,1674,2614,-1398
17.772,1590,2084,-1460
17.773,1384,1350,-1108
17.776,1154,776,-516
17.779,892,102,-150
17.781,610,-424,-110
17.784,442,-732,-250
17.786,484,-1018,-264
17.789,686,-1190,-182
17.791,924,-1126,-170
17.794,1066,-880,-214
17.796,1100,-596,-228
17.799,1066,-380,-166
17.801,1040,-278,-78
17.804,1028,-326,-26
17.807,1076,-428,-38
17.809,1168,-536,-130
17.812,1280,-564,-222
17.813,1318,-506,-306
17.816,1352,-384,-322
17.818,1362,-242,-336
17.821,1352,-150,-352
17.823,1330,-96,-308
17.826,1286,-84,-242
17.828,1218,-86,-154
17.831,1140,-82,-86
17.834,1052,-82,-26
17.836,984,-76,18
17.839,924,-78,72
17.841,878,-78,136
17.844,828,-76,196
17.846,806,-98,254
17.849,788,-132,294
17.851,796,-188,338
17.854,810,-238,356
17.856,834,-306,354
17.858,870,-370,360
17.861,902,-422,334
17.863,942,-482,292
17.866,976,-500,262
17.868,996,-514,244
17.871,1022,-516,220
17.873,1020,-524,216
17.876,1034,-518,210
17.878,1026,-508,188
17.881,1028,-496,188
17.884,1022,-456,184
17.886,1028,-410,168
17.889,1024,-358,178
17.891,1016,-290,170
17.894,1008,-246,184
17.895,1010,-176,190
17.898,1006,-114,194
17.900,1004,-58,202
17.903,1000,-4,210
17.906,998,46,212
17.908,992,110,220
17.911,996,164,232
17.913,978,226,236
17.916,974,266,250
17.918,974,322,252
17.921,954,358,266
17.923,956,388,288
17.926,944,406,298
17.928,932,420,314
17.931,918,422,310
17.934,904,422,282
17.935,912,408,286
17.938,900,382,266
17.940,902,350,246
17.943,890,308,234
17.945,892,262,218
17.948,894,218,192
17.950,886,162,200
17.953,896,118,170
17.956,902,78,172
17.958,914,26,170
17.961,924,10,144
17.963,934,-26,138
17.966,944,-48,120
17.968,966,-62,102
17.971,978,-60,90
17.973,996,-74,72
17.976,1010,-68,64
17.977,1016,-82,58
17.980,1028,-76,58
17.983,1048,-72,54
17.985,1040,-68,50
17.988,1046,-50,44
17.990,1038,-46,42
17.993,1042,-34,52
17.995,1036,-16,48
18.000,1030,-12,52
18.001,1010,-12,52
18.004,1004,-6,54
18.006,1000,-4,60
18.009,982,-10,82
18.012,982,0,88
18.014,970,2,92
18.017,966,0,86
18.019,958,10,96
18.022,966,18,102
18.024,968,18,124
18.027,952,18,122
18.029,950,14,148
18.032,954,18,132
18.035,958,10,148
18.037,954,4,162
18.040,954,0,162
18.041,966,0,164
18.044,962,0,166
18.046,964,-4,172
18.049,968,-2,176
18.051,962,-10,180
18.054,970,-14,186
18.056,962,-20,194
18.059,962,-20,204
18.062,962,-22,210
18.064,958,-34,226
18.067,958,-40,230
18.069,954,-48,246
18.072,960,-48,230
18.074,956,-62,234
18.077,966,-64,244
18.079,970,-76,234
18.081,974,-80,238
18.084,976,-76,246
18.086,972,-96,238
18.089,976,-102,228
18.091,976,-120,222
18.094,980,-122,222
18.096,980,-126,208
18.099,988,-134,214
18.101,984,-132,224
18.104,982,-136,196
18.106,978,-120,184
18.109,968,-116,170
18.112,958,-100,174
18.114,958,-90,162
18.117,954,-84,174
18.119,952,-62,170
18.122,940,-66,174
18.123,946,-40,154
18.126,946,-32,148
18.128,958,-22,152
18.131,958,-2,146
18.133,966,2,152
18.136,964,10,150
18.139,964,8,136
18.141,982,32,146
18.144,982,32,148
18.146,986,34,154
18.149,974,32,146
18.151,988,34,150
18.154,982,52,152
18.156,984,52,146
18.159,984,56,148
18.162,980,58,142
18.163,982,48,150
18.166,976,46,144
18.168,994,40,150
18.171,998,46,162
18.173,1006,36,152
18.176,1014,18,154
18.178,1010,18,162
18.181,1016,6,164
18.183,1016,2,160
18.186,1024,-18,166
18.189,1032,-16,176
18.191,1032,-44,180
18.194,1034,-60,176
18.196,1026,-70,176
18.199,1030,-78,170
18.201,1026,-86,184
18.203,1012,-98,162
18.205,1012,-92,170
18.208,1004,-90,160
18.211,996,-82,182
18.213,982,-80,182
18.216,982,-82,194
18.218,972,-72,188
18.221,960,-80,180
18.223,964,-68,208
18.226,960,-66,206
18.228,944,-72,218
18.231,942,-66,216
18.233,952,-74,216
18.236,956,-64,218
18.239,954,-74,226
18.241,966,-68,226
18.244,956,-70,232
18.245,980,-62,228
18.248,972,-72,228
18.250,972,-70,228
18.253,974,-64,234
18.255,968,-76,230
18.258,974,-76,218
18.261,962,-72,208
18.263,966,-74,220
18.266,962,-66,190
18.268,960,-68,204
18.271,954,-58,198
18.273,958,-62,200
18.276,948,-62,196
18.278,952,-70,188
18.281,962,-70,194
18.283,954,-80,182
18.285,958,-92,180
18.288,964,-82,192
18.290,964,-90,172
18.293,974,-94,180
18.295,974,-94,160
18.298,976,-86,164
18.300,972,-90,158
18.303,976,-94,152
18.305,984,-70,144
18.308,982,-82,144
18.310,980,-64,146
18.313,974,-70,148
18.316,980,-62,148
18.318,982,-56,140
18.321,980,-62,156
18.323,982,-54,152
18.325,982,-62,148
18.327,990,-62,142
18.330,982,-68,144
18.332,980,-76,146
18.335,972,-70,144
18.338,976,-80,152
18.340,974,-76,150
18.343,968,-86,140
18.345,964,-82,148
18.348,960,-74,160
18.350,956,-80,164
18.353,942,-82,170
18.355,950,-72,172
18.358,954,-70,162
18.360,942,-80,166
18.363,946,-78,168
18.366,934,-80,164
18.367,954,-68,158
18.370,946,-66,172
18.372,958,-54,176
18.375,962,-44,188
18.377,970,-46,176
18.380,978,-36,190
18.382,972,-38,204
18.385,982,-46,208
18.388,982,-34,208
18.390,994,-34,208
18.393,1004,-22,208
18.395,1008,-26,216
18.398,998,-30,208
18.400,996,-28,198
18.403,990,-24,204
18.405,998,-24,206
18.407,1004,-22,210
18.409,998,-30,198
18.412,992,-46,194
18.415,990,-42,202
18.417,986,-36,180
18.420,992,-48,192
18.422,976,-50,188
18.425,988,-44,184
18.427,982,-48,192
18.430,978,-58,184
18.432,990,-48,180
18.435,970,-52,172
18.437,978,-46,170
18.440,976,-46,176
18.443,978,-40,176
18.445,982,-38,184
18.447,964,-44,178
18.449,980,-30,166
18.452,978,-32,164
18.454,978,-40,162
18.457,968,-38,168
18.459,972,-42,164
18.462,974,-30,178
18.465,970,-38,160
18.467,980,-46,168
18.470,954,-54,148
18.472,966,-54,144
18.475,960,-54,146
18.477,970,-66,150
18.480,970,-70,156
18.482,966,-72,140
18.485,972,-88,144
18.487,972,-82,128
18.489,986,-90,120
18.492,976,-96,124
18.494,980,-102,134
18.497,980,-98,128
18.499,982,-106,140
18.502,986,-100,132
18.504,990,-100,132
18.507,990,-94,128
18.509,982,-86,130
18.512,986,-86,136
18.515,988,-80,138
18.517,976,-78,136
18.520,980,-80,152
18.522,980,-72,140
18.525,976,-70,154
18.527,976,-68,156
18.529,978,-66,154
18.531,968,-48,172
18.534,974,-58,172
18.536,976,-54,188
18.539,966,-60,184
18.542,984,-58,178
18.544,978,-46,188
18.547,988,-56,180
18.549,988,-52,176
18.552,982,-58,174
18.554,988,-58,176
18.557,972,-62,172
18.559,980,-68,166
18.562,986,-70,184
18.564,982,-66,164
18.567,986,-62,184
18.569,972,-64,172
18.571,982,-62,176
18.574,974,-76,178
18.576,984,-66,170
18.579,978,-74,168
18.581,980,-78,172
18.584,982,-70,164
18.586,980,-72,152
18.589,976,-72,152
18.592,962,-82,158
18.594,976,-76,160
18.597,968,-70,160
18.599,966,-78,160
18.602,960,-80,154
18.604,956,-80,150
18.607,964,-76,144
18.609,958,-78,138
18.611,970,-76,124
18.613,958,-78,116
18.616,966,-86,132
18.619,968,-72,150
18.621,962,-84,130
18.624,970,-76,140
18.626,962,-84,134
18.629,976,-80,136
18.631,974,-82,138
18.634,976,-82,150
18.636,980,-70,144
18.639,986,-72,152
18.642,990,-68,146
18.644,992,-64,130
18.647,986,-68,154
18.649,994,-64,138
18.651,994,-74,140
18.653,990,-64,138
18.656,986,-78,144
18.658,1002,-58,150
18.661,982,-62,142
18.663,984,-66,156
18.666,978,-62,144
18.669,982,-68,140
18.671,980,-64,136
18.674,976,-62,140
18.676,980,-56,152
18.679,980,-58,134
18.681,978,-62,150
18.684,982,-72,152
18.686,992,-76,152
18.689,982,-78,156
18.691,982,-94,150
18.693,984,-82,136
18.696,986,-100,134
18.698,984,-98,144
18.701,988,-110,144
18.703,990,-102,130
18.706,980,-102,128
18.708,978,-122,120
18.711,974,-106,118
18.713,966,-110,104
18.716,964,-110,114
18.719,954,-114,104
18.721,956,-104,120
18.724,950,-88,108
18.726,946,-100,118
18.729,944,-88,122
18.731,944,-84,128
18.733,948,-76,144
18.735,938,-74,126
18.738,952,-72,148
18.740,956,-64,134
18.743,960,-70,148
18.746,968,-62,146
18.748,966,-66,158
18.751,978,-60,160
18.753,972,-62,162
18.756,978,-68,162
18.758,982,-68,166
18.761,976,-76,166
18.763,982,-72,168
18.766,980,-86,160
18.769,990,-78,160
18.771,978,-90,158
18.773,988,-84,164
18.775,980,-92,162
18.778,982,-100,166
18.780,988,-96,156
18.783,978,-106,150
18.785,982,-106,146
18.788,982,-102,140
18.790,982,-114,144
18.793,982,-112,142
18.796,978,-112,142
18.798,982,-106,138
18.801,970,-104,132
18.803,972,-108,136
18.806,970,-100,130
18.808,966,-92,140
18.811,978,-78,136
18.813,968,-76,132
18.815,972,-72,138
18.818,956,-76,114
18.820,966,-56,128
18.823,968,-56,124
18.825,970,-52,134
18.828,966,-58,132
18.830,970,-46,126
18.833,972,-40,140
18.835,964,-50,136
18.838,976,-52,138
18.840,976,-50,124
18.843,978,-62,118
18.846,968,-70,128
18.848,972,-72,116
18.851,974,-74,130
18.853,970,-82,120
18.855,972,-80,124
18.857,976,-76,108
18.860,976,-88,118
18.862,970,-96,126
18.865,972,-94,126
18.867,972,-102,130
18.870,970,-96,130
18.873,974,-100,128
18.875,956,-96,132
18.878,976,-96,130
18.880,972,-88,128
18.883,966,-98,122
18.885,978,-92,124
18.888,972,-104,134
18.890,976,-98,132
18.893,974,-98,140
18.895,976,-92,140
18.897,974,-92,142
18.900,980,-90,152
18.902,974,-90,150
18.905,984,-94,150
18.907,992,-76,140
18.910,984,-78,136
18.912,990,-72,140
18.915,990,-76,140
18.917,990,-88,144
18.920,988,-82,142
18.923,988,-90,134
18.925,998,-94,138
18.928,988,-104,134
18.930,978,-92,142
18.933,978,-96,136
18.935,976,-100,142
18.937,974,-102,140
18.939,978,-98,136
18.942,968,-96,146
18.945,976,-106,144
18.947,972,-104,138
18.950,956,-106,130
18.952,968,-112,136
18.955,972,-96,126
18.957,962,-114,134
18.960,970,-102,140
18.962,964,-100,130
18.965,978,-92,150
18.967,968,-96,138
18.970,974,-100,144
18.973,968,-94,136
18.975,980,-94,136
18.977,978,-92,146
18.979,968,-88,138
18.982,982,-88,142
18.984,980,-86,142
18.987,974,-88,136
18.989,966,-78,138
18.992,970,-84,140
18.995,978,-74,138
18.999,962,-76,132
19.001,974,-74,138
19.003,960,-78,132
19.006,954,-82,136
19.008,954,-70,130
19.011,946,-84,126
19.013,956,-72,134
19.016,946,-86,130
19.018,954,-82,138
19.021,956,-76,126
19.023,960,-82,128
19.026,956,-80,130
19.029,966,-82,140
19.031,970,-78,134
19.034,966,-88,138
19.036,990,-78,142
19.039,988,-76,148
19.040,994,-80,154
19.043,990,-78,148
19.045,992,-86,142
19.048,1004,-86,150
19.051,988,-96,150
19.053,1002,-90,152
19.056,992,-102,148
19.058,994,-104,158
19.061,984,-104,146
19.063,982,-110,138
19.066,980,-104,138
19.068,972,-116,128
19.071,976,-110,138
19.073,958,-116,142
19.076,962,-110,144
19.079,956,-112,138
19.081,964,-110,142
19.083,964,-104,136
19.085,968,-102,142
19.088,970,-100,136
19.090,974,-96,136
19.093,992,-98,146
19.095,980,-92,138
19.098,986,-98,140
19.101,990,-90,148
19.103,978,-94,136
19.106,986,-90,144
19.108,978,-96,134
19.111,980,-100,142
19.113,984,-92,142
19.116,976,-86,138
19.118,984,-96,132
19.121,974,-96,150
19.122,976,-90,152
19.125,964,-100,138
19.128,972,-94,146
19.130,966,-94,150
19.133,964,-106,152
19.135,966,-102,150
19.138,962,-106,136
19.140,976,-106,150
19.143,968,-100,134
19.145,974,-112,146
19.148,978,-102,138
19.150,978,-100,142
19.153,978,-100,146
19.156,970,-104,134
19.158,970,-96,136
19.161,974,-90,134
19.162,974,-90,144
19.165,972,-82,142
19.167,970,-92,138
19.170,968,-82,140
19.172,968,-88,148
19.175,966,-80,154
19.178,968,-82,142
19.180,978,-80,144
19.183,970,-84,148
19.185,978,-84,142
19.188,982,-78,138
19.190,972,-96,146
19.193,974,-94,150
19.195,976,-86,140
19.198,978,-92,138
19.200,978,-82,138
19.203,974,-88,138
19.205,978,-90,124
19.207,972,-96,128
19.210,978,-88,146
19.212,970,-96,142
19.215,974,-100,146
19.217,972,-84,134
19.220,976,-102,144
19.222,978,-96,136
19.225,986,-90,136
19.228,982,-92,144
19.230,982,-92,142
19.233,986,-96,146
19.235,982,-86,142
19.238,982,-98,138
19.240,980,-92,140
19.243,980,-104,142
19.244,984,-96,156
19.247,976,-106,134
19.249,986,-104,148
19.252,980,-92,130
19.255,976,-98,138
19.257,976,-92,142
19.260,972,-92,142
19.262,978,-82,132
19.265,966,-88,130
19.267,974,-82,140
19.270,966,-82,132
19.272,972,-80,144
19.275,966,-88,132
19.277,968,-86,142
19.280,968,-98,150
19.283,966,-96,148
19.284,966,-90,152
19.287,972,-86,136
19.289,972,-96,134
19.292,974,-86,136
19.294,980,-92,140
19.297,976,-82,134
19.299,976,-86,146
19.302,982,-86,136
19.305,972,-80,138
19.307,986,-82,134
19.310,986,-92,138
19.312,988,-88,130
19.315,976,-80,134
19.317,980,-96,128
19.320,984,-88,136
19.322,972,-90,144
19.325,982,-94,136
19.326,974,-90,124
19.329,976,-102,146
19.332,972,-98,148
19.334,968,-102,140
19.337,980,-98,142
19.339,980,-94,138
19.342,978,-108,156
19.344,974,-100,156
19.347,982,-90,142
19.349,980,-90,146
19.352,978,-102,148
19.355,974,-102,136
19.357,976,-94,138
19.360,966,-102,156
19.362,964,-88,132
19.365,960,-92,138
19.366,962,-82,138
19.369,960,-82,140
19.371,958,-80,140
19.374,964,-80,124
19.376,960,-80,150
19.379,960,-84,144
19.382,966,-84,154
19.384,970,-70,146
19.387,974,-80,142
19.389,984,-78,142
19.392,992,-78,144
19.394,984,-80,144
19.397,980,-90,144
19.399,990,-84,136
19.402,982,-88,130
19.404,992,-90,148
19.406,998,-94,150
19.409,980,-100,146
19.411,980,-98,142
19.414,974,-98,138
19.416,970,-104,142
19.419,972,-98,144
19.421,966,-112,140
19.424,962,-96,130
19.426,962,-110,128
19.429,964,-106,138
19.432,962,-98,134
19.434,968,-90,146
19.437,962,-90,150
19.439,974,-90,132
19.442,978,-86,142
19.444,976,-92,144
19.447,982,-88,134
19.448,978,-102,134
19.451,986,-94,154
19.453,976,-96,138
19.456,982,-90,144
19.459,990,-82,146
19.461,982,-86,142
19.464,982,-82,134
19.466,984,-90,132
19.469,978,-96,140
19.471,974,-86,132
19.474,980,-98,140
19.476,984,-90,148
19.479,970,-106,146
19.482,970,-96,144
19.484,976,-94,136
19.487,980,-92,134
19.488,978,-100,140
19.491,978,-92,140
19.493,972,-94,140
19.496,972,-108,138
19.498,962,-104,146
19.501,962,-106,146
19.503,972,-98,134
19.506,970,-108,144
19.509,964,-98,146
19.511,958,-100,142
19.514,964,-96,146
19.516,964,-86,150
19.519,968,-92,142
19.521,966,-82,152
19.524,970,-84,148
19.526,972,-78,146
19.528,966,-78,146
19.530,976,-72,146
19.533,972,-80,146
19.536,978,-68,134
19.538,974,-70,138
19.541,974,-70,140
19.543,972,-82,144
19.546,982,-78,138
19.548,978,-96,142
19.551,976,-94,132
19.553,986,-102,162
19.556,974,-98,148
19.559,978,-106,148
19.561,986,-114,142
19.564,974,-116,140
19.566,990,-110,150
19.569,976,-112,142
19.570,986,-114,140
19.573,984,-104,142
19.575,984,-114,138
19.578,984,-108,142
19.580,976,-102,132
19.583,984,-104,136
19.586,978,-106,140
19.588,978,-112,150
19.591,970,-96,146
19.593,968,-104,150
19.596,964,-102,142
19.598,964,-98,146
19.601,970,-90,146
19.603,962,-104,140
19.606,966,-92,154
19.609,962,-86,142
19.610,970,-90,148
19.613,974,-80,136
19.615,970,-84,142
19.618,976,-76,136
19.620,970,-84,138
19.623,978,-78,148
19.625,970,-94,132
19.628,968,-88,140
19.630,974,-84,138
19.633,980,-86,142
19.636,984,-78,142
19.638,978,-90,128
19.641,980,-84,134
19.643,972,-92,126
19.646,986,-84,148
19.648,966,-88,134
19.650,976,-92,148
19.652,972,-84,128
19.655,964,-86,136
19.658,968,-76,140
19.660,972,-82,136
19.663,974,-78,146
19.665,972,-88,138
19.668,976,-78,156
19.670,978,-70,146
19.673,982,-78,144
19.675,980,-76,140
19.678,974,-86,148
19.680,984,-82,146
19.683,970,-94,144
19.686,976,-90,148
19.688,972,-92,142
19.691,986,-102,152
19.692,978,-96,152
19.695,984,-102,140
19.697,988,-92,140
19.700,990,-92,150
19.702,982,-96,152
19.705,980,-94,140
19.707,986,-94,144
19.710,964,-102,142
19.713,976,-98,150
19.715,966,-96,140
19.718,968,-88,144
19.720,968,-92,148
19.723,952,-102,140
19.725,962,-86,138
19.728,958,-94,132
19.730,962,-96,136
19.732,956,-88,138
19.735,962,-94,156
19.737,960,-90,148
19.740,968,-86,144
19.742,982,-76,148
19.745,970,-86,144
19.747,980,-80,140
19.750,982,-78,142
19.752,982,-84,140
19.755,984,-78,148
19.758,972,-86,144
19.760,986,-88,148
19.763,976,-84,142
19.765,972,-96,138
19.768,970,-96,140
19.770,970,-100,136
19.772,972,-90,146
19.774,972,-102,146
19.777,972,-98,138
19.779,964,-98,138
19.782,972,-104,144
19.785,964,-100,134
19.787,978,-104,132
19.790,970,-98,136
19.792,974,-100,150
19.795,978,-94,152
19.797,966,-92,142
19.800,976,-100,142
19.802,974,-94,136
19.805,970,-94,148
19.807,974,-88,150
19.810,980,-90,142
19.813,982,-84,136
19.814,982,-86,132
19.817,984,-86,138
19.819,984,-86,140
19.822,972,-88,148
19.824,978,-94,148
19.827,972,-100,152
19.829,976,-96,146
19.832,970,-104,148
19.835,978,-96,160
19.837,974,-100,142
19.840,982,-100,148
19.842,972,-110,144
19.845,966,-118,144
19.847,976,-118,146
19.850,968,-116,136
19.852,970,-114,148
19.854,966,-118,138
19.856,964,-110,144
19.859,956,-108,154
19.862,964,-116,148
19.864,964,-104,140
19.867,964,-112,152
19.869,964,-102,148
19.872,956,-106,158
19.874,970,-98,156
19.877,972,-86,152
19.879,970,-88,150
19.882,972,-92,152
19.884,966,-98,150
19.887,974,-90,140
19.890,972,-86,142
19.892,968,-88,156
19.894,968,-86,142
19.896,974,-94,140
19.899,972,-94,138
19.901,972,-100,142
19.904,982,-94,152
19.906,984,-96,136
19.909,988,-90,140
19.912,970,-92,154
19.914,978,-102,154
19.917,980,-92,150
19.919,978,-96,142
19.922,972,-98,150
19.924,972,-108,142
19.927,980,-108,148
19.929,970,-110,146
19.932,982,-114,150
19.934,978,-110,138
19.936,982,-114,148
19.939,972,-110,144
19.941,982,-108,138
19.944,986,-102,152
19.946,982,-102,142
19.949,976,-108,160
19.951,980,-96,156
19.954,972,-108,150
19.956,974,-104,152
19.959,970,-106,148
19.962,982,-106,138
19.964,972,-110,142
19.967,982,-96,150
19.969,974,-100,152
19.972,976,-102,140
19.974,980,-98,144
19.976,966,-104,142
19.978,970,-100,154
19.981,974,-98,140
19.983,970,-98,152
19.986,964,-96,146
19.989,960,-94,142
19.991,968,-92,158
19.994,960,-106,138
19.998,972,-92,160
20.000,964,-102,148
20.002,966,-100,154
20.005,962,-102,154
20.007,970,-102,148
20.010,976,-94,156
20.012,974,-102,152
20.015,982,-96,160
20.018,976,-104,150
20.020,982,-102,148
20.023,976,-102,158
20.025,978,-108,140
20.028,980,-106,158
20.030,972,-100,142
20.033,964,-102,144
20.035,964,-98,136
20.038,972,-96,154
20.040,966,-102,142
20.042,966,-96,142
20.045,968,-82,150
20.047,968,-88,146
20.050,974,-78,152
20.052,976,-82,146
20.055,982,-88,158
20.057,980,-80,162
20.060,978,-92,146
20.062,980,-84,134
20.065,978,-82,144
20.068,984,-86,150
20.070,980,-82,140
20.073,980,-94,146
20.075,976,-78,140
20.078,970,-94,142
20.080,978,-84,156
20.082,966,-94,138
20.084,982,-90,146
20.087,966,-104,144
20.089,974,-96,148
20.092,966,-102,156
20.095,980,-98,148
20.097,986,-90,146
20.100,976,-92,146
20.102,984,-98,146
20.105,980,-98,140
20.107,982,-100,144
20.110,982,-100,140
20.112,974,-110,150
20.115,976,-102,152
20.117,972,-100,140
20.120,970,-102,140
20.122,972,-106,134
20.124,976,-102,140
20.127,968,-100,146
20.129,964,-110,156
20.132,968,-102,152
20.134,966,-98,126
20.137,968,-102,156
20.139,960,-100,148
20.142,964,-96,154
20.145,962,-86,134
20.147,954,-102,146
20.150,958,-90,142
20.152,950,-98,146
20.155,964,-88,154
20.157,958,-86,152
20.160,970,-88,146
20.162,966,-82,138
20.164,972,-90,138
20.166,972,-86,144
20.169,972,-88,134
20.172,974,-86,146
20.174,968,-94,142
20.177,972,-98,154
20.179,968,-102,146
20.182,970,-106,156
20.184,976,-96,156
20.187,972,-108,140
20.189,984,-96,150
20.192,964,-106,150
20.195,976,-100,152
20.197,968,-108,150
20.200,974,-110,152
20.202,970,-110,150
20.204,972,-118,154
20.206,976,-108,162
20.209,970,-114,158
20.211,974,-116,138
20.214,970,-102,152
20.216,974,-106,146
20.219,972,-104,154
20.222,966,-104,154
20.224,974,-106,158
20.227,972,-104,142
20.229,974,-100,150
20.232,976,-96,158
20.234,974,-96,156
20.237,968,-104,150
20.239,976,-104,152
20.242,972,-98,158
20.244,964,-104,146
20.246,960,-102,164
20.249,966,-104,160
20.251,976,-100,148
20.254,966,-98,144
20.256,968,-100,150
20.259,972,-88,162
20.261,972,-102,144
20.264,976,-104,156
20.266,962,-102,152
20.269,970,-110,156
20.272,984,-112,142
20.274,978,-118,158
20.277,976,-118,156
20.279,978,-122,158
20.282,982,-124,152
20.284,980,-124,164
20.286,986,-120,160
20.288,976,-120,142
20.291,984,-118,154
20.293,980,-122,150
20.296,972,-124,150
20.299,978,-122,152
20.301,970,-124,144
20.304,978,-116,156
20.306,974,-118,148
20.309,970,-122,142
20.311,978,-112,158
20.314,966,-122,152
20.316,976,-110,148
20.319,964,-114,146
20.322,972,-114,156
20.324,966,-108,142
20.326,970,-118,142
20.328,976,-104,148
20.331,966,-110,156
20.333,974,-104,152
20.336,968,-102,144
20.338,974,-106,144
20.341,972,-106,154
20.343,970,-106,140
20.346,976,-102,160
20.349,966,-110,142
20.351,970,-108,148
20.354,966,-110,144
20.356,964,-106,142
20.359,968,-102,154
20.361,968,-102,144
20.364,968,-102,148
20.366,960,-106,144
20.368,982,-110,140
20.371,972,-102,136
20.373,976,-104,148
20.376,968,-106,156
20.378,964,-106,132
20.381,972,-94,146
20.383,972,-100,140
20.386,972,-104,148
20.388,976,-94,144
20.391,958,-96,142
20.393,966,-98,154
20.396,970,-102,154
20.399,978,-92,152
20.401,972,-88,142
20.404,988,-90,142
20.406,982,-82,142
20.408,984,-92,162
20.410,982,-84,152
20.413,980,-90,144
20.415,974,-94,162
20.418,968,-96,146
20.420,978,-92,140
20.423,960,-94,136
20.426,970,-92,138
20.428,964,-86,132
20.431,966,-96,132
20.433,960,-86,140
20.436,954,-96,140
20.438,964,-88,146
20.441,962,-94,140
20.443,970,-82,140
20.446,966,-88,142
20.448,964,-94,138
20.450,982,-80,144
20.453,974,-82,144
20.455,984,-84,160
20.458,972,-76,142
20.460,982,-74,150
20.463,976,-76,156
20.465,976,-74,148
20.468,978,-76,150
20.470,966,-82,152
20.473,980,-70,152
20.476,970,-86,146
20.478,976,-90,152
20.481,974,-80,148
20.483,968,-92,152
20.486,978,-88,170
20.488,962,-100,140
20.490,980,-84,144
20.492,962,-98,140
20.495,970,-92,152
20.498,964,-94,146
20.500,966,-102,140
20.503,972,-104,154
20.505,964,-106,164
20.508,970,-98,148
20.510,968,-96,134
20.513,964,-106,150
20.515,962,-100,148
20.518,964,-106,144
20.520,966,-94,152
20.523,966,-96,164
20.526,968,-88,154
20.528,974,-94,138
20.530,982,-96,152
20.532,978,-90,150
20.535,978,-100,154
20.537,978,-104,156
20.540,980,-102,154
20.542,988,-98,144
20.545,982,-108,140
20.547,982,-104,142
20.550,980,-112,136
20.553,978,-124,136
20.555,982,-122,130
20.558,976,-124,134
20.560,976,-128,130
20.563,976,-126,144
20.565,982,-134,138
20.568,974,-132,138
20.569,980,-128,134
20.572,978,-126,156
20.575,972,-128,144
20.577,966,-126,154
20.580,970,-118,160
20.582,968,-130,144
20.585,968,-120,168
20.587,974,-116,154
20.590,970,-108,164
20.592,964,-104,156
20.595,974,-102,162
20.597,964,-98,160
20.600,968,-102,162
20.603,968,-100,162
20.605,970,-98,156
20.608,970,-96,160
20.610,966,-110,158
20.612,974,-106,162
20.614,970,-106,146
20.617,968,-106,154
20.619,962,-108,150
20.622,970,-114,140
20.625,974,-102,146
20.627,964,-112,146
20.630,970,-104,142
20.632,968,-102,122
20.635,972,-108,144
20.637,970,-104,134
20.640,968,-106,132
20.642,980,-90,140
20.645,978,-88,128
20.647,982,-94,142
20.650,970,-88,138
20.652,980,-88,142
20.654,976,-74,138
20.657,970,-82,130
20.659,984,-78,136
20.662,976,-90,130
20.664,976,-84,136
20.667,986,-68,142
20.669,974,-86,136
20.672,984,-74,136
20.675,978,-72,136
20.677,980,-78,142
20.680,974,-72,136
20.682,984,-78,138
20.685,982,-78,142
20.687,976,-88,138
20.690,972,-82,136
20.691,972,-92,134
20.694,974,-88,140
20.696,962,-90,132
20.699,968,-90,142
20.702,968,-86,146
20.704,962,-96,140
20.707,972,-82,150
20.709,960,-84,142
20.712,962,-92,158
20.714,960,-90,142
20.717,968,-86,156
20.719,962,-86,162
20.722,970,-90,140
20.724,978,-86,142
20.727,972,-84,146
20.730,974,-88,152
20.732,978,-90,146
20.734,982,-104,148
20.736,988,-96,140
20.739,988,-94,138
20.741,980,-94,148
20.744,976,-96,142
20.746,984,-86,138
20.749,978,-96,146
20.752,982,-98,152
20.754,972,-92,142
20.757,968,-102,144
20.759,970,-94,134
20.762,966,-92,140
20.764,968,-92,132
20.767,974,-92,130
20.769,970,-96,142
20.772,972,-84,136
20.773,970,-92,134
20.776,978,-84,140
20.779,966,-96,132
20.781,980,-96,142
20.784,972,-84,134
20.786,980,-88,142
20.789,978,-84,150
20.791,978,-90,130
20.794,990,-80,136
20.796,978,-94,134
20.799,992,-92,148
20.802,982,-92,130
20.804,988,-96,138
20.807,990,-94,136
20.809,986,-94,132
20.812,988,-80,140
20.813,984,-92,130
20.816,978,-102,138
20.818,974,-92,140
20.821,982,-90,146
20.823,976,-80,126
20.826,978,-92,138
20.829,972,-82,142
20.831,962,-94,134
20.834,966,-96,148
20.836,964,-94,142
20.839,968,-92,148
20.841,952,-100,150
20.844,960,-106,146
20.846,968,-92,142
20.849,962,-94,150
20.851,966,-98,146
20.854,962,-94,140
20.856,968,-94,144
20.858,966,-98,132
20.861,984,-100,138
20.863,980,-90,146
20.866,976,-102,146
20.868,988,-96,146
20.871,984,-102,144
20.873,984,-104,144
20.876,988,-98,140
20.879,982,-104,138
20.881,980,-104,156
20.884,984,-106,134
20.886,980,-104,136
20.889,972,-118,134
20.891,974,-114,130
20.894,964,-104,136
20.895,970,-112,132
20.898,966,-110,134
20.900,966,-102,140
20.903,972,-100,138
20.906,968,-100,128
20.908,976,-100,134
20.911,962,-98,124
20.913,970,-96,134
20.916,966,-96,138
20.918,974,-88,142
20.921,966,-94,146
20.923,974,-100,138
20.926,970,-104,154
20.929,978,-94,140
20.931,978,-102,150
20.934,974,-96,140
20.935,980,-96,152
20.938,978,-94,152
20.940,968,-104,142
20.943,976,-102,144
20.945,968,-102,132
20.948,976,-100,152
20.950,970,-96,148
20.953,982,-96,146
20.956,976,-94,142
20.958,972,-88,140
20.961,972,-96,136
20.963,974,-94,132
20.966,972,-90,142
20.968,964,-96,136
20.971,974,-98,132
20.973,976,-84,144
20.976,968,-98,130
20.977,982,-80,144
20.980,974,-88,126
20.983,982,-92,142
20.985,974,-96,132
20.988,980,-94,136
20.990,980,-92,138
20.993,982,-92,138
20.995,980,-92,136
21.000,978,-94,132
21.001,984,-100,146
21.004,980,-98,146
21.006,998,-96,132
21.009,990,-90,142
21.012,984,-100,138
21.014,984,-86,136
21.017,980,-102,138
21.019,976,-102,132
21.022,978,-96,122
21.024,986,-96,148
21.027,978,-90,142
21.029,978,-100,144
21.032,972,-100,138
21.035,974,-100,142
21.037,988,-102,144
21.040,974,-98,134
21.041,978,-100,136
21.044,974,-100,124
21.046,978,-104,150
21.049,980,-98,130
21.051,978,-98,134
21.054,982,-102,142
21.056,972,-92,130
21.059,974,-102,140
21.062,968,-98,142
21.064,970,-96,140
21.067,970,-90,136
21.069,972,-86,140
21.072,968,-80,136
21.074,964,-78,124
21.077,970,-84,140
21.079,964,-74,128
21.081,972,-84,140
21.083,970,-78,142
21.086,976,-88,148
21.089,974,-76,132
21.091,974,-84,136
21.094,984,-80,142
21.096,978,-76,134
21.099,980,-78,150
21.101,988,-78,134
21.104,980,-84,144
21.106,978,-76,144
21.109,964,-84,136
21.112,980,-72,150
21.114,968,-72,118
21.117,978,-74,132
21.119,980,-64,134
21.122,980,-84,142
21.123,986,-80,138
21.126,986,-84,126
21.128,988,-84,130
21.131,984,-84,132
21.133,984,-84,138
21.136,1002,-74,124
21.139,998,-80,130
21.141,1000,-70,132
21.144,996,-82,142
21.146,998,-78,138
21.149,990,-72,140
21.151,990,-82,126
21.154,980,-88,126
21.156,996,-82,108
21.159,986,-84,136
21.162,988,-98,132
21.163,992,-90,138
21.166,988,-80,126
21.168,986,-80,138
21.171,976,-74,140
21.173,970,-84,146
21.176,966,-72,140
21.178,956,-82,144
21.181,970,-74,136
21.183,956,-82,134
21.186,960,-76,140
21.189,952,-82,128
21.191,962,-82,136
21.194,948,-84,134
21.196,960,-88,132
21.199,960,-82,148
21.201,964,-70,132
21.203,972,-56,130
21.205,968,-62,132
21.208,976,-58,144
21.210,970,-56,136
21.213,976,-58,142
21.226,978,-58,136
21.228,974,-64,136
21.231,982,-80,120
21.233,988,-76,134
21.236,988,-92,130
21.239,992,-92,148
21.241,986,-100,138
21.244,986,-108,138
21.245,972,-122,126
21.248,984,-124,136
21.250,978,-130,128
21.253,982,-132,144
21.255,976,-132,138
21.258,976,-132,126
21.260,974,-128,134
21.263,968,-130,124
21.266,978,-134,138
21.268,968,-120,132
21.271,974,-128,138
21.273,978,-110,136
21.276,966,-114,128
21.278,976,-116,130
21.281,972,-108,132
21.283,966,-114,134
21.285,972,-100,132
21.287,974,-110,132
21.290,972,-110,132
21.293,972,-106,128
21.295,974,-100,140
21.298,970,-96,120
21.300,982,-96,118
21.303,966,-86,126
21.305,968,-104,124
21.308,962,-94,124
21.310,964,-90,124
21.313,966,-86,122
21.316,960,-88,114
21.318,972,-78,122
21.321,958,-80,120
21.323,970,-68,110
21.325,962,-62,112
21.327,958,-82,96
21.330,972,-60,116
21.332,960,-68,102
21.335,972,-64,126
21.337,968,-64,114
21.340,972,-70,118
21.343,988,-64,130
21.345,986,-64,116
21.348,994,-62,110
21.350,986,-64,108
21.353,996,-54,130
21.355,996,-58,118
21.358,994,-60,106
21.360,1000,-56,124
21.363,992,-58,130
21.366,1002,-62,120
21.367,996,-62,118
21.370,1006,-68,126
21.372,996,-68,122
21.375,1002,-68,114
21.377,1002,-72,116
21.380,1000,-72,122
21.382,1012,-74,132
21.385,1006,-68,106
21.387,1012,-70,112
21.390,1004,-72,112
21.393,1016,-74,102
21.395,998,-86,116
21.398,1008,-82,102
21.400,1004,-78,114
21.403,998,-74,98
21.405,992,-76,102
21.407,994,-74,108
21.409,988,-72,104
21.412,984,-66,116
21.415,976,-74,112
21.417,986,-66,108
21.420,978,-60,100
21.422,994,-56,114
21.425,986,-58,112
21.427,990,-54,106
21.430,986,-42,122
21.432,986,-44,106
21.435,990,-46,106
21.437,984,-38,106
21.440,984,-48,110
21.443,986,-34,96
21.445,982,-38,100
21.447,990,-30,110
21.449,986,-26,112
21.452,988,-36,102
21.454,988,-26,90
21.457,984,-30,94
21.459,988,-34,102
21.462,974,-50,102
21.464,986,-36,104
21.467,982,-26,98
21.470,984,-38,116
21.472,984,-36,96
21.475,994,-40,104
21.477,990,-50,104
21.480,990,-56,106
21.482,996,-64,94
21.485,998,-54,92
21.487,1000,-58,90
21.489,1004,-58,86
21.492,1000,-70,86
21.494,1004,-62,88
21.497,990,-66,86
21.499,994,-74,86
21.502,994,-66,98
21.504,1002,-76,86
21.507,988,-76,82
21.509,988,-78,78
21.512,990,-78,86
21.514,982,-80,70
21.517,990,-80,88
21.520,994,-72,76
21.522,998,-82,68
21.525,996,-66,88
21.527,996,-76,74
21.529,1010,-70,76
21.531,1000,-66,78
21.534,1000,-74,84
21.536,990,-68,78
21.539,992,-70,90
21.542,992,-60,90
21.544,988,-72,84
21.547,980,-66,88
21.549,986,-70,84
21.552,982,-70,86
21.554,976,-68,98
21.557,976,-76,82
21.559,968,-68,94
21.562,958,-72,90
21.564,956,-72,86
21.567,956,-70,88
21.569,960,-70,98
21.571,962,-64,100
21.574,968,-56,90
21.576,968,-54,84
21.579,970,-54,88
21.581,978,-48,102
21.584,978,-60,94
21.586,984,-58,98
21.589,974,-62,94
21.591,990,-60,88
21.594,984,-56,84
21.597,986,-62,88
21.599,990,-50,88
21.602,974,-60,92
21.604,992,-48,100
21.607,988,-52,102
21.609,988,-54,96
21.611,986,-46,92
21.613,988,-42,102
21.616,992,-36,98
21.619,986,-32,96
21.621,990,-34,98
21.624,996,-20,92
21.626,994,-34,100
21.629,994,-30,106
21.631,1000,-32,100
21.634,1006,-18,88
21.636,1000,-28,88
21.639,1006,-38,92
21.641,1002,-34,94
21.644,1002,-46,90
21.647,1002,-44,94
21.649,1000,-56,100
21.651,1008,-44,112
21.653,998,-54,90
21.656,1006,-56,90
21.658,1002,-56,78
21.661,998,-62,80
21.663,1004,-56,68
21.666,992,-60,60
21.669,996,-58,68
21.671,990,-54,56
21.674,996,-52,60
21.676,990,-50,60
21.679,988,-44,62
21.681,980,-42,60
21.684,978,-46,58
21.686,974,-38,66
21.689,974,-34,62
21.691,978,-38,62
21.693,974,-24,62
21.696,976,-32,70
21.698,980,-26,68
21.701,978,-26,54
21.703,982,-22,68
21.706,982,-18,56
21.708,986,-24,68
21.711,988,-16,66
21.713,992,-26,74
21.716,990,-26,58
21.718,998,-22,66
21.721,998,-26,66
21.724,988,-32,56
21.726,984,-38,64
21.729,978,-34,62
21.731,978,-38,60
21.733,972,-46,58
21.735,976,-36,46
21.738,980,-34,52
21.740,976,-34,58
21.743,976,-30,66
21.746,974,-30,50
21.748,980,-18,60
21.751,976,-28,58
21.753,982,-22,56
21.756,988,-18,58
21.758,978,-14,62
21.761,1002,-14,72
21.763,990,-4,58
21.766,992,-12,68
21.768,1002,-2,62
21.771,996,-4,62
21.773,996,-8,68
21.775,990,-22,78
21.778,998,-20,70
21.780,994,-12,72
21.783,994,-14,76
21.785,988,-18,72
21.788,990,-20,68
21.790,986,-14,64
21.793,980,-18,64
21.796,986,-12,68
21.798,984,-14,64
21.801,976,-14,76
21.803,978,-8,70
21.806,976,-22,76
21.808,982,-18,102
21.811,982,-20,92
21.813,988,-16,84
21.815,986,-16,78
21.817,984,-26,72
21.820,992,-28,80
21.823,990,-34,80
21.825,996,-30,90
21.828,994,-30,70
21.830,1002,-28,82
21.833,996,-30,88
21.835,1000,-38,78
21.838,1006,-36,68
21.840,996,-40,72
21.843,1004,-40,64
21.846,986,-46,56
21.848,1000,-46,64
21.851,986,-42,56
21.853,986,-50,56
21.855,984,-34,60
21.857,974,-52,54
21.860,986,-42,58
21.862,982,-50,60
21.865,974,-56,68
21.867,976,-42,62
21.870,966,-52,50
21.873,986,-36,60
21.875,970,-42,52
21.878,980,-30,46
21.880,988,-26,62
21.883,1000,-24,68
21.885,990,-34,62
21.888,992,-32,62
21.890,996,-34,70
21.893,994,-34,52
21.894,1002,-36,68
21.897,1000,-42,72
21.900,1000,-42,66
21.902,1006,-38,54
21.905,996,-40,60
21.907,1004,-38,56
21.910,1002,-42,60
21.912,990,-44,66
21.915,988,-38,64
21.917,986,-50,68
21.920,978,-48,68
21.923,980,-50,54
21.925,978,-48,72
21.928,976,-52,70
21.930,982,-50,68
21.933,984,-44,52
21.935,974,-58,48
21.937,988,-38,52
21.939,988,-30,52
21.942,986,-38,64
21.944,992,-34,64
21.947,994,-32,68
21.950,992,-32,50
21.952,990,-28,56
21.955,990,-22,68
21.957,986,-24,66
21.960,992,-28,58
21.962,984,-14,70
21.965,996,-12,68
21.967,994,-12,72
21.970,996,-4,66
21.973,992,-4,72
21.975,986,-14,68
21.977,1002,-4,78
21.979,996,-6,66
21.982,998,-8,66
21.984,996,-12,74
21.987,990,-16,72
21.989,998,-12,76
21.992,988,-2,64
21.994,980,-32,56
21.999,990,-24,56
22.001,988,-36,64
22.003,988,-28,62
22.006,988,-28,64
22.008,992,-28,64
22.011,986,-28,56
22.013,1002,-26,62
22.016,998,-24,56
22.018,994,-30,68
22.021,994,-26,82
22.024,994,-32,68
22.026,1002,-30,64
22.029,1000,-34,58
22.031,1000,-40,82
22.034,996,-26,84
22.036,1002,-30,76
22.039,990,-30,78
22.040,992,-36,64
22.043,990,-32,64
22.045,984,-26,62
22.048,994,-26,66
22.051,992,-20,66
22.053,992,-26,70
22.056,990,-16,74
22.058,988,-24,56
22.061,990,-14,68
22.063,984,-14,66
22.066,1000,-16,78
22.068,994,-24,68
22.071,992,-20,70
22.073,996,-22,66
22.076,998,-26,72
22.079,998,-28,78
22.081,994,-28,68
22.083,998,-36,76
22.085,990,-34,74
22.088,996,-36,88
22.090,1004,-36,80
22.093,996,-40,68
22.095,1012,-42,78
22.098,994,-52,68
22.101,994,-56,76
22.103,998,-58,76
22.106,992,-62,72
22.108,996,-56,70
22.111,994,-60,74
22.113,998,-54,72
22.116,984,-60,76
22.118,998,-50,70
22.121,990,-52,70
22.122,994,-50,68
22.125,998,-40,68
22.128,986,-52,70
22.130,996,-36,68
22.133,980,-38,58
22.135,982,-32,58
22.138,976,-40,62
22.140,980,-44,62
22.143,986,-24,60
22.145,980,-34,62
22.148,982,-18,70
22.151,974,-16,68
22.153,972,-16,70
22.156,986,-8,70
22.158,976,-6,70
22.161,976,-8,74
22.162,990,-6,66
22.165,976,0,80
22.167,974,0,74
22.170,978,-8,80
22.172,972,-14,62
22.175,982,-4,76
22.178,978,-10,66
22.180,980,-6,74
22.183,990,-8,72
22.185,852,-314,128
22.188,728,-380,218
22.190,756,-572,488
22.193,776,-986,986
22.195,858,-962,742
22.198,960,-202,-308
22.200,936,102,-732
22.203,952,10,-528
22.205,1040,8,-314
22.207,1112,30,-150
22.210,1178,68,-10
22.212,1196,136,70
22.215,1232,186,116
22.217,1246,236,114
22.220,1238,254,58
22.222,1208,258,54
22.225,1166,252,50
22.228,1128,252,54
22.230,1066,236,84
22.233,1028,246,92
22.235,984,246,98
22.238,954,236,108
22.240,918,232,86
22.243,902,214,58
22.244,898,204,44
22.247,898,170,22
22.249,906,154,36
22.252,916,130,46
22.255,936,100,54
22.257,960,92,58
22.260,990,76,56
22.262,1016,40,60
22.265,1182,632,352
22.267,1346,412,84
22.270,1144,288,-18
22.272,1092,30,26
22.275,966,-184,134
22.277,912,-226,132
22.280,888,-250,128
22.283,880,-274,122
22.284,874,-284,108
22.287,876,-286,60
22.289,868,-284,40
22.292,866,-290,26
22.294,888,-282,26
22.297,894,-284,24
22.299,912,-270,42
22.302,930,-260,56
22.305,948,-254,62
22.307,968,-238,60
22.310,984,-208,62
22.312,998,-188,70
22.315,1010,-158,74
22.317,1018,-136,80
22.320,1028,-106,106
22.322,1024,-86,100
22.325,1024,-64,114
22.326,1022,-52,112
22.329,1020,-26,120
22.332,1014,-10,116
22.334,1010,2,124
22.337,1004,28,116
22.339,998,38,122
22.342,986,54,126
22.344,976,60,110
22.347,982,72,126
22.349,968,78,104
22.352,966,74,100
22.355,960,76,92
22.357,960,64,84
22.360,970,70,86
22.362,962,44,86
22.365,970,42,86
22.366,972,26,78
22.369,968,8,68
22.371,978,0,72
22.374,976,-10,68
22.376,984,-28,62
22.379,982,-44,68
22.382,988,-52,64
22.384,988,-56,68
22.387,994,-62,74
22.389,992,-76,60
22.392,990,-80,72
22.394,988,-80,72
22.397,986,-80,66
22.399,988,-84,88
22.402,988,-90,76
22.404,998,-96,80
22.406,990,-102,86
22.409,994,-96,82
22.411,996,-96,88
22.414,986,-98,82
22.416,988,-86,88
22.419,986,-88,84
22.421,990,-74,100
22.424,988,-70,90
22.426,988,-66,98
22.429,1004,-50,98
22.432,982,-56,80
22.434,972,-32,138
22.437,958,0,178
22.439,834,174,320
22.442,990,24,66
22.444,996,18,76
22.447,996,-14,36
22.448,966,-36,2
22.451,970,-68,10
22.453,982,-56,34
22.456,1006,-40,82
22.459,1020,-26,112
22.461,1036,-6,162
22.464,1058,-4,126
22.466,1036,-102,4
22.469,1008,-8,58
22.471,1018,-32,62
22.474,1030,-52,68
22.476,1028,-54,54
22.479,1036,-64,62
22.482,1040,-70,50
22.484,1026,-82,50
22.487,1028,-74,52
22.488,1024,-72,60
22.491,1022,-62,70
22.493,1006,-52,80
22.496,1004,-52,76
22.498,990,-84,56
22.501,978,-18,98
22.503,998,-76,56
22.506,964,-72,58
22.509,962,-28,84
22.511,956,-30,84
22.514,964,-26,82
22.516,966,-32,80
22.519,970,-54,38
22.521,964,-16,64
22.524,962,-26,76
22.526,940,42,116
22.528,966,-80,62
22.530,964,-18,74
22.533,988,-20,76
22.536,982,-46,64
22.538,986,6,90
22.541,1002,-58,72
22.543,1000,-82,52
22.546,962,58,162
22.548,996,-94,76
22.551,952,46,122
22.553,966,-74,40
22.556,942,-2,94
22.559,942,-16,108
22.561,948,4,104
22.564,978,-108,22
22.566,924,118,164
22.569,964,-54,32
22.570,962,-84,18
22.573,968,-2,114
22.575,938,110,176
22.578,1024,-182,-14
22.580,948,118,136
22.583,972,168,206
22.586,1032,-218,-50
22.588,1016,-56,4
22.591,1016,118,128
22.593,996,80,180
22.596,1030,-142,38
22.598,1018,10,90
22.601,1046,-30,98
22.603,1024,-20,42
22.606,1006,-4,100
22.609,1016,-12,96
22.610,1026,-128,66
22.613,1032,-22,88
22.615,1012,26,120
22.618,998,-2,74
22.620,994,-54,88
22.623,1014,-48,84
22.625,1014,-52,100
22.628,1014,-12,90
22.630,1012,-24,90
22.633,976,-18,40
22.636,980,-54,88
22.638,978,-38,82
22.641,992,-44,104
22.643,988,-26,78
22.646,1004,-26,124
22.648,1026,-4,152
22.650,1042,-6,128
22.652,1032,-94,28
22.655,1006,-96,-16
22.657,1000,-14,74
22.660,1002,-78,68
22.663,988,-46,144
22.665,988,-28,118
22.668,974,72,174
22.670,1010,-254,-82
22.673,944,30,46
22.675,966,18,126
22.678,986,-48,118
22.680,970,-16,96
22.683,968,-48,88
22.686,952,44,74
22.688,968,-38,56
22.691,964,238,274
22.692,1024,-206,26
22.695,978,140,134
22.697,962,-176,-78
22.700,930,38,132
22.702,954,-28,148
22.705,976,-18,214
22.707,986,-138,60
22.710,948,-16,92
22.713,954,0,112
22.715,958,-16,112
22.718,962,-8,142
22.720,968,-28,126
22.723,982,-10,152
22.725,1000,-28,144
22.728,1008,-18,124
22.730,996,-14,124
22.732,1006,-28,116
22.735,1010,-36,112
22.737,1010,-64,94
22.740,1016,-82,78
22.742,1010,-102,52
22.745,994,-46,112
22.747,996,-50,106
22.750,994,-108,70
22.752,994,-84,58
22.755,978,-92,56
22.757,988,-80,66
22.760,988,-94,68
22.763,990,-92,76
22.765,966,-80,90
22.768,968,-76,110
22.770,964,-56,104
22.772,956,-58,92
22.774,954,-50,108
22.777,948,-62,76
22.779,954,-82,54
22.782,950,-176,-32
22.784,926,-68,72
22.787,972,-32,188
22.790,1024,-128,150
22.792,998,-36,122
22.795,1030,14,186
22.797,1038,-98,40
22.800,1014,-28,28
22.802,1016,-34,54
22.805,1004,-30,80
22.807,1004,-58,90
22.810,1006,-54,112
22.813,990,-64,116
22.814,990,-56,110
22.817,982,-54,98
22.819,980,-52,94
22.822,978,-52,86
22.824,984,-64,84
22.827,986,-52,86
22.829,990,-56,90
22.832,998,-58,100
22.834,1000,-70,100
22.837,1006,-70,90
22.840,998,-90,70
22.842,994,-106,48
22.845,980,-96,50
22.847,988,-18,168
22.850,1016,-94,124
22.852,1014,-88,92
22.854,1012,-70,70
22.856,1002,-62,58
22.859,992,-56,66
22.862,976,-68,56
22.864,980,-80,58
22.867,960,-62,64
22.869,960,-64,118
22.872,976,-50,118
22.874,964,-54,110
22.877,988,-46,126
22.879,992,-32,122
22.882,1002,-46,94
22.884,986,-48,68
22.887,976,-48,60
22.890,962,-48,66
22.892,952,-56,76
22.894,962,-44,100
22.896,960,-48,108
22.899,978,-50,112
22.901,970,-48,92
22.904,972,-46,88
22.906,970,-38,80
22.909,968,-54,94
22.911,978,-52,90
22.914,976,-62,80
22.917,996,-60,84
22.919,998,-56,90
22.922,1008,-66,94
22.924,1022,-58,106
22.927,1022,-80,100
22.929,1026,-76,92
22.932,1018,-80,68
22.934,1016,-62,94
22.936,1020,-34,134
22.939,1012,-32,160
22.941,1020,4,184
22.944,1002,62,222
22.946,1056,-38,148
22.949,988,-198,-226
22.951,990,40,126
22.954,986,-12,146
22.956,980,-58,148
22.959,968,-58,116
22.961,974,-60,120
22.964,980,-22,122
22.967,972,-10,96
22.969,962,-2,98
22.972,958,-52,48
22.974,966,-66,54
22.976,964,-50,70
22.978,972,-66,110
22.981,984,-56,126
22.983,976,-54,116
22.986,972,-44,104
22.989,956,-26,94
22.991,968,-26,68
22.994,970,-42,64
22.998,968,-36,100
23.000,984,-38,94
23.002,986,-38,84
23.005,994,-44,90
23.007,1002,-44,78
23.010,1002,-50,104
23.012,1006,-48,100
23.015,998,-52,98
23.018,986,-48,100
23.020,990,-62,98
23.023,994,-54,96
23.025,982,-62,108
23.028,988,-50,112
23.030,990,-58,110
23.033,998,-62,108
23.035,988,-64,96
23.038,998,-58,92
23.040,996,-66,92
23.042,998,-66,92
23.045,1000,-68,90
23.047,990,-70,88
23.050,988,-66,102
23.052,976,-70,98
23.055,974,-70,104
23.057,978,-68,90
23.060,966,-68,102
23.062,962,-60,108
23.065,932,-46,92
23.068,948,-50,106
23.070,946,-52,100
23.073,956,-56,104
23.075,956,-36,94
23.078,968,-56,84
23.080,956,-12,108
23.082,966,-40,106
23.084,988,-46,112
23.087,998,-46,100
23.089,1000,-54,124
23.092,1008,-48,114
23.095,1010,-66,106
23.097,1024,-62,128
23.100,1016,-68,118
23.102,1034,-60,108
23.105,1032,-80,108
23.107,1018,-70,110
23.110,1020,-76,102
23.112,1014,-86,96
23.115,1016,-88,100
23.118,1004,-100,92
23.120,994,-102,84
23.122,988,-110,82
23.124,986,-110,74
23.127,976,-92,90
23.129,974,-102,96
23.132,980,-98,100
23.134,972,-92,104
23.137,970,-86,98
23.139,966,-76,98
23.142,966,-76,104
23.145,962,-68,108
23.147,958,-54,114
23.150,956,-36,128
23.152,946,-36,120
23.155,940,-12,118
23.157,932,-16,106
23.160,950,-4,112
23.162,948,-24,104
23.164,956,-36,108
23.166,976,-30,118
23.169,980,-40,114
23.172,988,-40,118
23.174,992,-36,100
23.177,998,-14,128
23.179,974,-88,90
23.182,992,-18,132
23.184,998,-72,80
23.187,1014,-96,98
23.189,1020,-58,124
23.192,1012,-62,106
23.195,1010,-60,112
23.197,1002,-70,84
23.200,1020,-84,100
23.202,1018,-86,98
23.204,1022,-82,100
23.206,1020,-72,94
23.209,1020,-64,88
23.211,1018,-44,106
23.214,1006,-36,94
23.216,1004,-36,96
23.219,998,-44,98
23.222,1004,-40,90
23.224,990,-36,104
23.227,984,-32,104
23.229,996,-30,104
23.232,972,-36,110
23.234,970,-40,114
23.237,960,-48,114
23.239,958,-50,108
23.242,936,-56,114
23.244,944,-62,96
23.246,950,-58,106
23.249,944,-74,92
23.251,962,-74,108
23.254,950,-94,108
23.256,960,-78,104
23.259,966,-92,96
23.261,992,-94,112
23.264,996,-90,106
23.266,998,-100,102
23.269,1002,-86,102
23.272,992,-74,104
23.274,994,-54,116
23.277,984,-52,104
23.279,994,-46,128
23.282,984,-38,126
23.284,976,-28,120
23.286,958,-18,120
23.288,960,-8,134
23.291,958,0,124
23.293,952,-8,114
23.296,974,-4,130
23.299,964,0,132
23.301,976,2,136
23.304,970,2,126
23.306,982,2,126
23.309,996,8,152
23.311,996,2,134
23.314,994,-6,136
23.316,998,-12,126
23.319,1000,-42,116
23.322,1004,-40,112
23.324,1000,-54,108
23.326,1010,-66,102
23.328,1014,-68,106
23.331,1020,-76,122
23.333,1016,-84,100
23.336,1020,-96,104
23.338,1012,-86,102
23.341,1008,-102,82
23.343,1018,-94,94
23.346,1012,-104,80
23.349,1012,-114,100
23.351,1002,-116,92
23.354,998,-124,100
23.356,992,-108,100
23.359,968,-106,98
23.361,966,-90,88
23.364,948,-90,94
23.366,936,-94,104
23.368,932,-90,106
23.370,942,-92,82
23.373,936,-96,94
23.376,960,-98,102
23.378,962,-92,100
23.381,962,-90,96
23.383,964,-74,116
23.386,972,-46,128
23.388,968,-46,132
23.391,974,-42,146
23.393,974,-40,140
23.396,974,-32,150
23.399,972,-48,132
23.401,988,-38,142
23.404,990,-26,138
23.406,992,-36,136
23.408,1012,-54,144
23.410,1216,-254,-44
23.413,786,178,340
23.415,952,-56,86
23.418,1008,-82,134
23.420,1022,-86,134
23.423,1024,-90,88
23.426,1024,-88,92
23.428,1026,-100,100
23.431,1028,-110,108
23.433,1034,-122,124
23.436,1040,-130,110
23.438,1026,-132,116
23.441,1028,-120,108
23.443,1006,-116,102
23.446,980,-116,106
23.448,962,-104,92
23.450,948,-108,98
23.453,960,-90,108
23.455,954,-94,112
23.458,952,-96,122
23.460,958,-78,114
23.463,952,-60,126
23.465,936,-50,110
23.468,942,-52,120
23.470,952,-44,138
23.473,954,-56,140
23.476,990,-68,132
23.478,980,-78,142
23.481,972,-54,140
23.483,978,-44,126
23.486,980,-40,102
23.488,978,-42,106
23.490,994,-40,128
23.492,1006,-32,144
23.495,1006,-34,134
23.497,1010,-28,130
23.500,1006,-42,134
23.503,1000,-52,110
23.505,1006,-52,110
23.508,984,-76,112
23.510,996,-64,104
23.513,978,-70,110
23.515,978,-82,108
23.518,976,-76,106
23.520,978,-90,98
23.523,982,-68,132
23.526,986,-88,126
23.528,990,-94,118
23.530,982,-104,102
23.532,996,-108,94
23.535,982,-94,102
23.537,990,-98,104
23.540,974,-88,100
23.542,980,-100,110
23.545,992,-88,110
23.547,976,-100,106
23.550,978,-96,114
23.553,976,-90,118
23.555,988,-82,124
23.558,986,-84,116
23.560,990,-94,122
23.563,994,-86,118
23.565,992,-80,112
23.568,976,-90,128
23.569,974,-80,140
23.572,988,-70,148
23.575,978,-64,140
23.577,974,-64,176
23.580,978,-50,150
23.582,982,-46,158
23.585,988,-34,160
23.587,984,-48,146
23.590,998,-44,144
23.592,994,-40,138
23.595,994,-64,132
23.597,998,-44,126
23.600,986,-60,124
23.603,988,-64,128
23.605,982,-64,120
23.608,992,-84,114
23.610,992,-92,114
23.612,994,-102,124
23.614,998,-98,118
23.617,980,-100,114
23.619,994,-96,116
23.622,990,-98,118
23.624,982,-108,118
23.627,974,-104,114
23.630,976,-106,110
23.632,968,-96,124
23.635,966,-108,122
23.637,974,-90,116
23.640,970,-96,102
23.642,972,-86,120
23.645,974,-94,124
23.647,986,-80,128
23.650,984,-72,128
23.652,992,-74,130
23.654,986,-70,124
23.657,984,-72,114
23.659,988,-78,134
23.662,990,-72,130
23.664,990,-82,136
23.667,992,-62,132
23.669,994,-60,130
23.672,990,-64,144
23.674,982,-68,138
23.677,978,-56,144
23.680,976,-60,142
23.682,976,-68,150
23.685,982,-56,156
23.687,982,-58,144
23.690,978,-66,144
23.691,972,-62,138
23.694,990,-64,138
23.696,984,-72,124
23.699,988,-74,134
23.702,994,-68,136
23.704,1000,-66,116
23.707,986,-72,124
23.709,984,-80,124
23.712,992,-78,124
23.714,988,-84,100
23.717,996,-82,110
23.719,990,-74,110
23.722,986,-80,120
23.724,996,-64,106
23.727,976,-62,114
23.730,982,-52,120
23.732,978,-62,122
23.734,984,-64,120
23.736,992,-54,102
23.739,992,-64,114
23.741,986,-60,114
23.744,980,-66,132
23.746,1002,-62,142
23.749,992,-62,140
23.751,992,-58,134
23.754,990,-64,132
23.757,986,-70,138
23.759,986,-74,140
23.762,980,-74,120
23.764,978,-80,114
23.767,972,-92,104
23.769,968,-92,110
23.772,976,-80,118
23.773,972,-70,126
23.776,964,-60,118
23.779,976,-68,124
23.781,978,-62,136
23.784,980,-60,124
23.786,990,-64,136
23.789,992,-66,128
23.791,1002,-70,138
23.794,994,-64,138
23.796,996,-60,138
23.799,1000,-56,136
23.801,996,-54,132
23.804,1000,-58,144
23.807,982,-60,138
23.809,986,-60,132
23.812,990,-70,142
23.813,990,-74,138
23.816,986,-72,134
23.818,988,-84,126
23.821,992,-80,122
23.823,980,-86,132
23.826,976,-84,134
23.829,968,-84,126
23.831,966,-90,124
23.834,974,-80,126
23.836,964,-92,120
23.839,970,-92,124
23.841,956,-94,114
23.844,964,-92,126
23.846,972,-88,110
23.849,976,-96,118
23.851,980,-84,132
23.854,984,-100,126
23.856,988,-94,130
23.858,984,-82,120
23.861,992,-88,128
23.863,1000,-98,118
23.866,1000,-104,108
23.868,1008,-104,122
23.871,998,-134,110
23.873,996,-106,120
23.876,980,-114,104
23.878,972,-106,118
23.881,968,-98,130
23.884,972,-98,114
23.886,972,-88,118
23.889,968,-92,132
23.891,970,-92,118
23.894,962,-72,116
23.895,972,-58,134
23.898,962,-58,124
23.900,966,-54,138
23.903,962,-52,138
23.906,970,-52,134
23.908,982,-58,138
23.911,974,-70,144
23.913,992,-72,140
23.916,990,-72,122
23.918,998,-90,120
23.921,992,-92,138
23.923,992,-100,134
23.926,1000,-108,134
23.928,994,-114,130
23.931,1000,-122,140
23.934,1006,-112,136
23.935,1012,-116,138
23.938,998,-124,134
23.940,994,-114,140
23.943,982,-106,138
23.945,974,-100,142
23.948,974,-98,136
23.950,972,-84,140
23.953,986,-74,144
23.956,988,-82,140
23.958,980,-80,146
23.961,976,-66,156
23.963,976,-60,140
23.966,978,-56,132
23.968,974,-62,126
23.971,972,-58,132
23.973,974,-72,122
23.976,980,-74,124
23.977,986,-64,112
23.980,982,-62,124
23.983,980,-70,134
23.985,966,-64,116
23.988,962,-50,124
23.990,956,-50,120
23.993,960,-50,114
23.995,964,-46,114
24.000,964,-52,110
24.001,962,-56,112
24.004,966,-48,114
24.006,980,-50,102
24.009,990,-44,96
24.012,994,-56,110
24.014,990,-46,106
24.017,996,-64,106
24.019,988,-66,116
24.022,984,-74,116
24.024,990,-68,114
24.027,982,-74,100
24.029,998,-84,98
24.032,984,-86,104
24.034,978,-82,104
24.037,982,-80,118
24.040,992,-80,112
24.041,1000,-78,124
24.044,986,-76,124
24.046,996,-76,134
24.049,982,-64,126
24.051,988,-62,126
24.054,980,-48,148
24.056,976,-50,146
24.059,980,-48,148
24.062,980,-52,130
24.064,992,-58,150
24.067,982,-60,142
24.069,992,-64,142
24.072,990,-56,140
24.074,974,-54,140
24.077,984,-64,138
24.079,984,-66,128
24.081,982,-74,130
24.083,980,-74,126
24.086,982,-84,126
24.089,990,-84,126
24.091,986,-106,124
24.094,992,-106,134
24.096,994,-110,118
24.099,998,-98,142
24.101,988,-104,116
24.104,984,-116,124
24.106,980,-96,118
24.109,980,-100,124
24.111,980,-102,132
24.114,978,-106,130
24.117,986,-96,136
24.119,978,-82,130
24.122,972,-80,134
24.123,978,-72,146
24.126,980,-72,128
24.128,982,-64,146
24.131,972,-82,140
24.133,984,-66,144
24.136,978,-78,144
24.139,980,-90,146
24.141,976,-68,138
24.144,978,-80,134
24.146,980,-76,126
24.149,974,-86,122
24.151,966,-74,124
24.154,968,-88,110
24.156,968,-86,126
24.159,974,-90,114
24.161,980,-96,120
24.163,984,-86,124
24.166,990,-94,116
24.168,996,-100,134
24.171,994,-102,118
24.173,1008,-90,122
24.176,1004,-104,124
24.178,994,-106,118
24.181,990,-98,120
24.183,996,-96,120
24.186,986,-94,130
24.188,982,-92,132
24.191,976,-72,130
24.194,972,-70,136
24.196,972,-66,146
24.199,962,-52,130
24.201,968,-58,142
24.203,964,-46,136
24.205,978,-50,134
24.208,972,-40,138
24.210,974,-44,136
24.213,984,-44,144
24.216,976,-46,136
24.218,980,-38,128
24.221,976,-46,122
24.223,986,-44,136
24.226,996,-52,126
24.228,996,-64,120
24.231,984,-66,130
24.233,984,-72,118
24.236,988,-70,122
24.238,980,-80,112
24.241,978,-86,118
24.244,978,-76,120
24.245,976,-98,126
24.248,978,-80,118
24.250,980,-88,120
24.253,974,-76,116
24.255,970,-86,106
24.258,978,-88,116
24.260,978,-92,112
24.263,984,-104,122
24.266,984,-112,110
24.268,1002,-112,118
24.271,998,-106,112
24.273,998,-96,120
24.276,1000,-82,132
24.278,990,-74,120
24.281,992,-66,134
24.283,998,-62,134
24.285,992,-64,132
24.287,990,-56,140
24.290,984,-52,146
24.293,984,-32,154
24.295,972,-46,142
24.298,972,-34,148
24.300,962,-44,148
24.303,974,-50,152
24.305,974,-42,152
24.308,992,-54,136
24.310,966,-64,138
24.313,978,-54,132
24.315,982,-62,128
24.318,972,-72,138
24.321,980,-80,130
24.323,970,-86,132
24.325,976,-90,122
24.327,980,-82,112
24.330,982,-88,128
24.332,990,-86,128
24.335,992,-94,106
24.337,990,-98,126
24.340,982,-104,110
24.343,986,-108,122
24.345,982,-106,118
24.348,986,-110,122
24.350,992,-104,118
; 24 stopping logging: shutdown: switched off
